# log Energy    log Jnu
# (eV)          (ergs/s/cm2/Hz/Sr)
  -6.864        -20.261
  -6.820        -20.174
  -6.777        -20.087
  -6.734        -20.000
  -6.690        -19.914
  -6.647        -19.827
  -6.603        -19.740
  -6.560        -19.653
  -6.516        -19.566
  -6.473        -19.479
  -6.430        -19.392
  -6.386        -19.306
  -6.343        -19.219
  -6.299        -19.132
  -6.256        -19.045
  -6.212        -18.958
  -6.169        -18.871
  -6.126        -18.785
  -6.082        -18.698
  -6.039        -18.611
  -5.995        -18.524
  -5.952        -18.437
  -5.908        -18.350
  -5.865        -18.264
  -5.822        -18.177
  -5.778        -18.090
  -5.735        -18.003
  -5.691        -17.916
  -5.648        -17.829
  -5.605        -17.742
  -5.561        -17.656
  -5.518        -17.569
  -5.474        -17.482
  -5.431        -17.395
  -5.387        -17.309
  -5.344        -17.222
  -5.300        -17.135
  -5.257        -17.048
  -5.214        -16.962
  -5.170        -16.875
  -5.127        -16.788
  -5.083        -16.701
  -5.040        -16.615
  -4.996        -16.528
  -4.953        -16.441
  -4.910        -16.355
  -4.866        -16.268
  -4.823        -16.181
  -4.779        -16.095
  -4.736        -16.008
  -4.692        -15.922
  -4.649        -15.835
  -4.606        -15.749
  -4.562        -15.663
  -4.519        -15.576
  -4.475        -15.490
  -4.432        -15.404
  -4.388        -15.318
  -4.345        -15.232
  -4.302        -15.146
  -4.258        -15.060
  -4.215        -14.974
  -4.171        -14.888
  -4.128        -14.803
  -4.084        -14.718
  -4.041        -14.632
  -3.998        -14.547
  -3.954        -14.463
  -3.911        -14.378
  -3.867        -14.293
  -3.824        -14.209
  -3.781        -14.125
  -3.737        -14.042
  -3.693        -13.959
  -3.650        -13.876
  -3.607        -13.794
  -3.584        -13.755
  -3.582        -13.745
  -3.580        -13.743
  -3.577        -13.740
  -3.575        -13.736
  -3.573        -13.732
  -3.571        -13.728
  -3.569        -13.724
  -3.567        -13.720
  -3.564        -13.715
  -3.562        -13.711
  -3.560        -13.707
  -3.558        -13.703
  -3.556        -13.699
  -3.554        -13.695
  -3.551        -13.691
  -3.549        -13.687
  -3.547        -13.683
  -3.545        -13.679
  -3.543        -13.675
  -3.540        -13.671
  -3.538        -13.667
  -3.536        -13.662
  -3.534        -13.658
  -3.532        -13.654
  -3.530        -13.650
  -3.528        -13.646
  -3.525        -13.642
  -3.523        -13.638
  -3.521        -13.634
  -3.519        -13.630
  -3.517        -13.626
  -3.514        -13.622
  -3.512        -13.618
  -3.510        -13.614
  -3.508        -13.610
  -3.506        -13.606
  -3.504        -13.602
  -3.502        -13.598
  -3.499        -13.594
  -3.497        -13.590
  -3.495        -13.586
  -3.493        -13.582
  -3.491        -13.578
  -3.488        -13.574
  -3.486        -13.570
  -3.484        -13.566
  -3.482        -13.562
  -3.480        -13.558
  -3.477        -13.554
  -3.475        -13.549
  -3.473        -13.545
  -3.471        -13.541
  -3.469        -13.537
  -3.467        -13.533
  -3.464        -13.530
  -3.462        -13.525
  -3.460        -13.521
  -3.458        -13.517
  -3.456        -13.513
  -3.454        -13.509
  -3.451        -13.505
  -3.449        -13.502
  -3.447        -13.497
  -3.445        -13.493
  -3.443        -13.489
  -3.441        -13.486
  -3.438        -13.481
  -3.436        -13.477
  -3.434        -13.473
  -3.432        -13.470
  -3.430        -13.465
  -3.428        -13.462
  -3.425        -13.458
  -3.423        -13.454
  -3.421        -13.450
  -3.419        -13.446
  -3.417        -13.442
  -3.415        -13.438
  -3.412        -13.434
  -3.410        -13.430
  -3.408        -13.426
  -3.406        -13.422
  -3.404        -13.418
  -3.402        -13.414
  -3.399        -13.410
  -3.397        -13.406
  -3.395        -13.402
  -3.393        -13.398
  -3.391        -13.394
  -3.389        -13.390
  -3.386        -13.386
  -3.384        -13.382
  -3.382        -13.379
  -3.380        -13.375
  -3.378        -13.371
  -3.376        -13.367
  -3.373        -13.363
  -3.371        -13.359
  -3.369        -13.355
  -3.367        -13.351
  -3.365        -13.347
  -3.362        -13.343
  -3.360        -13.339
  -3.358        -13.335
  -3.356        -13.331
  -3.354        -13.328
  -3.352        -13.324
  -3.349        -13.320
  -3.347        -13.316
  -3.345        -13.312
  -3.343        -13.308
  -3.341        -13.304
  -3.339        -13.300
  -3.336        -13.296
  -3.334        -13.293
  -3.332        -13.289
  -3.330        -13.285
  -3.328        -13.281
  -3.326        -13.277
  -3.323        -13.273
  -3.321        -13.269
  -3.319        -13.265
  -3.317        -13.262
  -3.315        -13.258
  -3.313        -13.254
  -3.310        -13.250
  -3.308        -13.246
  -3.306        -13.242
  -3.304        -13.238
  -3.302        -13.235
  -3.300        -13.231
  -3.297        -13.227
  -3.295        -13.223
  -3.293        -13.219
  -3.291        -13.215
  -3.289        -13.212
  -3.287        -13.208
  -3.284        -13.204
  -3.282        -13.200
  -3.280        -13.196
  -3.278        -13.192
  -3.276        -13.189
  -3.273        -13.185
  -3.271        -13.181
  -3.269        -13.177
  -3.267        -13.174
  -3.265        -13.169
  -3.263        -13.166
  -3.260        -13.162
  -3.258        -13.158
  -3.256        -13.154
  -3.254        -13.151
  -3.252        -13.147
  -3.250        -13.143
  -3.247        -13.139
  -3.245        -13.136
  -3.243        -13.132
  -3.241        -13.128
  -3.239        -13.124
  -3.237        -13.121
  -3.234        -13.117
  -3.232        -13.113
  -3.230        -13.109
  -3.228        -13.106
  -3.226        -13.102
  -3.224        -13.098
  -3.221        -13.094
  -3.219        -13.091
  -3.217        -13.087
  -3.215        -13.083
  -3.213        -13.079
  -3.211        -13.076
  -3.208        -13.072
  -3.206        -13.068
  -3.204        -13.064
  -3.202        -13.061
  -3.200        -13.057
  -3.197        -13.053
  -3.195        -13.050
  -3.193        -13.046
  -3.191        -13.042
  -3.189        -13.039
  -3.187        -13.035
  -3.184        -13.031
  -3.182        -13.028
  -3.180        -13.024
  -3.178        -13.020
  -3.176        -13.017
  -3.174        -13.013
  -3.171        -13.009
  -3.169        -13.005
  -3.167        -13.002
  -3.165        -12.998
  -3.163        -12.995
  -3.161        -12.991
  -3.158        -12.987
  -3.156        -12.984
  -3.154        -12.980
  -3.152        -12.976
  -3.150        -12.973
  -3.148        -12.969
  -3.145        -12.966
  -3.143        -12.962
  -3.141        -12.959
  -3.139        -12.955
  -3.137        -12.951
  -3.135        -12.948
  -3.132        -12.944
  -3.130        -12.941
  -3.128        -12.937
  -3.126        -12.933
  -3.124        -12.930
  -3.122        -12.926
  -3.119        -12.923
  -3.117        -12.919
  -3.115        -12.916
  -3.113        -12.912
  -3.111        -12.908
  -3.108        -12.905
  -3.106        -12.901
  -3.104        -12.898
  -3.102        -12.894
  -3.100        -12.891
  -3.098        -12.887
  -3.095        -12.884
  -3.093        -12.880
  -3.091        -12.877
  -3.089        -12.873
  -3.087        -12.870
  -3.085        -12.866
  -3.082        -12.863
  -3.080        -12.859
  -3.078        -12.856
  -3.076        -12.852
  -3.074        -12.849
  -3.072        -12.845
  -3.069        -12.842
  -3.067        -12.839
  -3.065        -12.835
  -3.063        -12.832
  -3.061        -12.828
  -3.059        -12.825
  -3.056        -12.821
  -3.054        -12.818
  -3.052        -12.814
  -3.050        -12.811
  -3.048        -12.808
  -3.046        -12.804
  -3.043        -12.801
  -3.041        -12.798
  -3.039        -12.794
  -3.037        -12.791
  -3.035        -12.787
  -3.032        -12.784
  -3.030        -12.781
  -3.028        -12.777
  -3.026        -12.774
  -3.024        -12.771
  -3.022        -12.767
  -3.019        -12.764
  -3.017        -12.761
  -3.015        -12.757
  -3.013        -12.754
  -3.011        -12.751
  -3.009        -12.747
  -3.006        -12.744
  -3.004        -12.741
  -3.002        -12.737
  -3.000        -12.734
  -2.998        -12.731
  -2.996        -12.728
  -2.993        -12.724
  -2.991        -12.721
  -2.989        -12.718
  -2.987        -12.715
  -2.985        -12.711
  -2.983        -12.708
  -2.980        -12.705
  -2.978        -12.702
  -2.976        -12.698
  -2.974        -12.695
  -2.972        -12.692
  -2.970        -12.689
  -2.967        -12.686
  -2.965        -12.682
  -2.963        -12.679
  -2.961        -12.676
  -2.959        -12.673
  -2.956        -12.670
  -2.954        -12.667
  -2.952        -12.664
  -2.950        -12.660
  -2.948        -12.657
  -2.946        -12.654
  -2.944        -12.651
  -2.941        -12.648
  -2.939        -12.645
  -2.937        -12.642
  -2.935        -12.639
  -2.933        -12.635
  -2.930        -12.632
  -2.928        -12.629
  -2.926        -12.626
  -2.924        -12.623
  -2.922        -12.620
  -2.920        -12.617
  -2.917        -12.614
  -2.915        -12.611
  -2.913        -12.608
  -2.911        -12.605
  -2.909        -12.602
  -2.907        -12.599
  -2.904        -12.596
  -2.902        -12.593
  -2.900        -12.590
  -2.898        -12.587
  -2.896        -12.584
  -2.894        -12.581
  -2.891        -12.578
  -2.889        -12.576
  -2.887        -12.572
  -2.885        -12.570
  -2.883        -12.567
  -2.880        -12.564
  -2.878        -12.561
  -2.876        -12.558
  -2.874        -12.555
  -2.872        -12.552
  -2.870        -12.549
  -2.867        -12.547
  -2.865        -12.544
  -2.863        -12.541
  -2.861        -12.538
  -2.859        -12.535
  -2.857        -12.533
  -2.855        -12.530
  -2.852        -12.527
  -2.850        -12.524
  -2.848        -12.522
  -2.846        -12.519
  -2.843        -12.516
  -2.842        -12.513
  -2.839        -12.511
  -2.837        -12.507
  -2.835        -12.505
  -2.833        -12.502
  -2.831        -12.499
  -2.828        -12.497
  -2.826        -12.494
  -2.824        -12.491
  -2.822        -12.489
  -2.820        -12.486
  -2.817        -12.484
  -2.815        -12.481
  -2.813        -12.479
  -2.811        -12.476
  -2.809        -12.473
  -2.807        -12.471
  -2.805        -12.468
  -2.802        -12.466
  -2.800        -12.463
  -2.798        -12.460
  -2.796        -12.458
  -2.794        -12.455
  -2.792        -12.453
  -2.789        -12.450
  -2.787        -12.448
  -2.785        -12.446
  -2.783        -12.443
  -2.781        -12.441
  -2.779        -12.438
  -2.776        -12.436
  -2.774        -12.433
  -2.772        -12.431
  -2.770        -12.428
  -2.767        -12.426
  -2.765        -12.424
  -2.763        -12.421
  -2.761        -12.419
  -2.759        -12.417
  -2.757        -12.414
  -2.754        -12.412
  -2.753        -12.410
  -2.750        -12.407
  -2.748        -12.405
  -2.746        -12.403
  -2.744        -12.401
  -2.741        -12.398
  -2.739        -12.396
  -2.737        -12.394
  -2.735        -12.392
  -2.733        -12.390
  -2.731        -12.387
  -2.729        -12.385
  -2.726        -12.383
  -2.724        -12.381
  -2.722        -12.379
  -2.720        -12.377
  -2.718        -12.375
  -2.716        -12.373
  -2.713        -12.370
  -2.711        -12.368
  -2.709        -12.366
  -2.707        -12.364
  -2.705        -12.362
  -2.703        -12.360
  -2.700        -12.358
  -2.698        -12.356
  -2.696        -12.354
  -2.694        -12.352
  -2.692        -12.351
  -2.689        -12.349
  -2.687        -12.347
  -2.685        -12.345
  -2.683        -12.343
  -2.681        -12.341
  -2.679        -12.339
  -2.677        -12.337
  -2.674        -12.336
  -2.672        -12.334
  -2.670        -12.332
  -2.668        -12.330
  -2.666        -12.328
  -2.663        -12.327
  -2.661        -12.325
  -2.659        -12.323
  -2.657        -12.322
  -2.655        -12.320
  -2.653        -12.318
  -2.650        -12.317
  -2.648        -12.315
  -2.646        -12.313
  -2.644        -12.312
  -2.642        -12.310
  -2.640        -12.309
  -2.637        -12.307
  -2.635        -12.306
  -2.633        -12.304
  -2.631        -12.303
  -2.629        -12.301
  -2.626        -12.300
  -2.624        -12.298
  -2.622        -12.297
  -2.620        -12.295
  -2.618        -12.294
  -2.616        -12.293
  -2.614        -12.291
  -2.611        -12.290
  -2.609        -12.289
  -2.607        -12.287
  -2.605        -12.286
  -2.603        -12.285
  -2.600        -12.283
  -2.598        -12.282
  -2.596        -12.281
  -2.594        -12.280
  -2.592        -12.279
  -2.590        -12.278
  -2.587        -12.277
  -2.585        -12.275
  -2.583        -12.274
  -2.581        -12.273
  -2.579        -12.272
  -2.577        -12.271
  -2.574        -12.270
  -2.572        -12.269
  -2.570        -12.268
  -2.568        -12.267
  -2.566        -12.266
  -2.564        -12.265
  -2.561        -12.265
  -2.559        -12.264
  -2.557        -12.263
  -2.555        -12.262
  -2.553        -12.261
  -2.551        -12.260
  -2.548        -12.260
  -2.546        -12.259
  -2.544        -12.258
  -2.542        -12.258
  -2.540        -12.257
  -2.538        -12.256
  -2.535        -12.256
  -2.533        -12.255
  -2.531        -12.255
  -2.529        -12.254
  -2.527        -12.254
  -2.525        -12.253
  -2.522        -12.253
  -2.520        -12.252
  -2.518        -12.252
  -2.516        -12.251
  -2.514        -12.251
  -2.511        -12.251
  -2.509        -12.250
  -2.507        -12.250
  -2.505        -12.250
  -2.503        -12.249
  -2.501        -12.249
  -2.498        -12.249
  -2.496        -12.249
  -2.494        -12.249
  -2.492        -12.248
  -2.490        -12.248
  -2.488        -12.248
  -2.485        -12.248
  -2.483        -12.248
  -2.481        -12.248
  -2.479        -12.248
  -2.477        -12.248
  -2.475        -12.248
  -2.472        -12.248
  -2.470        -12.249
  -2.468        -12.249
  -2.466        -12.249
  -2.464        -12.249
  -2.462        -12.250
  -2.459        -12.250
  -2.457        -12.250
  -2.455        -12.250
  -2.453        -12.251
  -2.451        -12.251
  -2.448        -12.252
  -2.446        -12.252
  -2.444        -12.253
  -2.442        -12.253
  -2.440        -12.254
  -2.438        -12.254
  -2.435        -12.255
  -2.433        -12.255
  -2.431        -12.256
  -2.429        -12.257
  -2.427        -12.258
  -2.425        -12.258
  -2.422        -12.259
  -2.420        -12.260
  -2.418        -12.261
  -2.416        -12.262
  -2.414        -12.263
  -2.412        -12.264
  -2.409        -12.265
  -2.407        -12.266
  -2.405        -12.267
  -2.403        -12.268
  -2.401        -12.269
  -2.398        -12.270
  -2.396        -12.271
  -2.394        -12.272
  -2.392        -12.274
  -2.390        -12.275
  -2.388        -12.276
  -2.386        -12.278
  -2.383        -12.279
  -2.381        -12.280
  -2.379        -12.282
  -2.377        -12.283
  -2.375        -12.285
  -2.372        -12.287
  -2.370        -12.288
  -2.368        -12.290
  -2.366        -12.292
  -2.364        -12.293
  -2.362        -12.295
  -2.359        -12.297
  -2.357        -12.299
  -2.355        -12.301
  -2.353        -12.302
  -2.351        -12.304
  -2.349        -12.306
  -2.346        -12.308
  -2.344        -12.310
  -2.342        -12.313
  -2.340        -12.315
  -2.338        -12.317
  -2.336        -12.319
  -2.333        -12.321
  -2.331        -12.324
  -2.329        -12.326
  -2.327        -12.328
  -2.325        -12.331
  -2.323        -12.333
  -2.320        -12.336
  -2.318        -12.338
  -2.316        -12.341
  -2.314        -12.344
  -2.312        -12.346
  -2.309        -12.349
  -2.307        -12.352
  -2.305        -12.355
  -2.303        -12.358
  -2.301        -12.360
  -2.299        -12.363
  -2.297        -12.366
  -2.294        -12.369
  -2.292        -12.372
  -2.290        -12.376
  -2.288        -12.379
  -2.286        -12.382
  -2.283        -12.385
  -2.281        -12.389
  -2.279        -12.392
  -2.277        -12.395
  -2.275        -12.399
  -2.273        -12.402
  -2.270        -12.406
  -2.268        -12.409
  -2.266        -12.413
  -2.264        -12.417
  -2.262        -12.420
  -2.260        -12.424
  -2.257        -12.428
  -2.255        -12.432
  -2.253        -12.436
  -2.251        -12.440
  -2.249        -12.444
  -2.247        -12.448
  -2.244        -12.452
  -2.242        -12.456
  -2.240        -12.461
  -2.238        -12.465
  -2.236        -12.469
  -2.234        -12.474
  -2.231        -12.478
  -2.229        -12.483
  -2.227        -12.487
  -2.225        -12.492
  -2.223        -12.496
  -2.220        -12.501
  -2.218        -12.506
  -2.216        -12.511
  -2.214        -12.516
  -2.212        -12.521
  -2.210        -12.526
  -2.207        -12.531
  -2.205        -12.536
  -2.203        -12.541
  -2.201        -12.546
  -2.199        -12.551
  -2.197        -12.557
  -2.194        -12.562
  -2.192        -12.568
  -2.190        -12.573
  -2.188        -12.579
  -2.186        -12.584
  -2.184        -12.590
  -2.181        -12.596
  -2.179        -12.602
  -2.177        -12.608
  -2.175        -12.613
  -2.173        -12.619
  -2.171        -12.626
  -2.168        -12.632
  -2.166        -12.638
  -2.164        -12.644
  -2.162        -12.650
  -2.160        -12.657
  -2.158        -12.663
  -2.155        -12.670
  -2.153        -12.676
  -2.151        -12.683
  -2.149        -12.690
  -2.147        -12.696
  -2.145        -12.703
  -2.142        -12.710
  -2.140        -12.717
  -2.138        -12.724
  -2.136        -12.731
  -2.134        -12.738
  -2.131        -12.746
  -2.129        -12.753
  -2.127        -12.760
  -2.125        -12.768
  -2.123        -12.775
  -2.121        -12.783
  -2.118        -12.790
  -2.116        -12.798
  -2.114        -12.806
  -2.112        -12.814
  -2.110        -12.822
  -2.108        -12.829
  -2.105        -12.838
  -2.103        -12.846
  -2.101        -12.854
  -2.099        -12.862
  -2.097        -12.871
  -2.095        -12.879
  -2.092        -12.888
  -2.090        -12.896
  -2.088        -12.905
  -2.086        -12.913
  -2.084        -12.922
  -2.082        -12.931
  -2.079        -12.940
  -2.077        -12.949
  -2.075        -12.958
  -2.073        -12.967
  -2.071        -12.977
  -2.069        -12.986
  -2.066        -12.996
  -2.064        -13.005
  -2.062        -13.015
  -2.060        -13.024
  -2.058        -13.034
  -2.056        -13.044
  -2.053        -13.054
  -2.051        -13.064
  -2.049        -13.074
  -2.047        -13.084
  -2.045        -13.094
  -2.043        -13.104
  -2.040        -13.115
  -2.038        -13.125
  -2.036        -13.136
  -2.034        -13.147
  -2.032        -13.157
  -2.029        -13.168
  -2.027        -13.179
  -2.025        -13.190
  -2.023        -13.201
  -2.021        -13.212
  -2.019        -13.224
  -2.016        -13.235
  -2.014        -13.247
  -2.012        -13.258
  -2.010        -13.270
  -2.008        -13.281
  -2.006        -13.293
  -2.003        -13.305
  -2.001        -13.317
  -1.999        -13.329
  -1.997        -13.341
  -1.995        -13.354
  -1.993        -13.366
  -1.990        -13.379
  -1.988        -13.391
  -1.986        -13.404
  -1.984        -13.417
  -1.982        -13.429
  -1.980        -13.442
  -1.977        -13.455
  -1.975        -13.468
  -1.973        -13.482
  -1.971        -13.495
  -1.969        -13.509
  -1.967        -13.522
  -1.964        -13.536
  -1.962        -13.550
  -1.960        -13.563
  -1.958        -13.577
  -1.956        -13.591
  -1.953        -13.606
  -1.951        -13.620
  -1.949        -13.634
