# log Energy    log Jnu
# (eV)          (ergs/s/cm2/Hz/Sr)
  -6.864        -20.333
  -6.820        -20.247
  -6.777        -20.160
  -6.734        -20.073
  -6.690        -19.986
  -6.647        -19.899
  -6.603        -19.812
  -6.560        -19.725
  -6.516        -19.639
  -6.473        -19.552
  -6.430        -19.465
  -6.386        -19.378
  -6.343        -19.291
  -6.299        -19.204
  -6.256        -19.117
  -6.212        -19.031
  -6.169        -18.944
  -6.126        -18.857
  -6.082        -18.770
  -6.039        -18.683
  -5.995        -18.596
  -5.952        -18.510
  -5.908        -18.423
  -5.865        -18.336
  -5.822        -18.249
  -5.778        -18.162
  -5.735        -18.076
  -5.691        -17.989
  -5.648        -17.902
  -5.605        -17.815
  -5.561        -17.728
  -5.518        -17.642
  -5.474        -17.555
  -5.431        -17.468
  -5.387        -17.381
  -5.344        -17.295
  -5.300        -17.208
  -5.257        -17.121
  -5.214        -17.034
  -5.170        -16.948
  -5.127        -16.861
  -5.083        -16.774
  -5.040        -16.687
  -4.996        -16.601
  -4.953        -16.514
  -4.910        -16.428
  -4.866        -16.341
  -4.823        -16.254
  -4.779        -16.168
  -4.736        -16.081
  -4.692        -15.995
  -4.649        -15.909
  -4.606        -15.822
  -4.562        -15.736
  -4.519        -15.650
  -4.475        -15.564
  -4.432        -15.478
  -4.388        -15.392
  -4.345        -15.306
  -4.302        -15.220
  -4.258        -15.134
  -4.215        -15.049
  -4.171        -14.963
  -4.128        -14.878
  -4.084        -14.793
  -4.041        -14.708
  -3.998        -14.623
  -3.954        -14.539
  -3.911        -14.455
  -3.867        -14.371
  -3.824        -14.287
  -3.781        -14.204
  -3.737        -14.121
  -3.693        -14.038
  -3.650        -13.956
  -3.607        -13.875
  -3.584        -13.837
  -3.582        -13.827
  -3.580        -13.825
  -3.577        -13.822
  -3.575        -13.818
  -3.573        -13.814
  -3.571        -13.810
  -3.569        -13.806
  -3.567        -13.802
  -3.564        -13.798
  -3.562        -13.794
  -3.560        -13.790
  -3.558        -13.786
  -3.556        -13.782
  -3.554        -13.777
  -3.551        -13.774
  -3.549        -13.769
  -3.547        -13.765
  -3.545        -13.761
  -3.543        -13.758
  -3.540        -13.754
  -3.538        -13.750
  -3.536        -13.745
  -3.534        -13.741
  -3.532        -13.737
  -3.530        -13.733
  -3.528        -13.729
  -3.525        -13.725
  -3.523        -13.721
  -3.521        -13.717
  -3.519        -13.713
  -3.517        -13.709
  -3.514        -13.706
  -3.512        -13.701
  -3.510        -13.697
  -3.508        -13.693
  -3.506        -13.689
  -3.504        -13.685
  -3.502        -13.681
  -3.499        -13.678
  -3.497        -13.674
  -3.495        -13.670
  -3.493        -13.666
  -3.491        -13.662
  -3.488        -13.658
  -3.486        -13.654
  -3.484        -13.650
  -3.482        -13.646
  -3.480        -13.642
  -3.477        -13.638
  -3.475        -13.634
  -3.473        -13.630
  -3.471        -13.626
  -3.469        -13.622
  -3.467        -13.618
  -3.464        -13.614
  -3.462        -13.610
  -3.460        -13.606
  -3.458        -13.602
  -3.456        -13.598
  -3.454        -13.595
  -3.451        -13.591
  -3.449        -13.587
  -3.447        -13.583
  -3.445        -13.579
  -3.443        -13.575
  -3.441        -13.571
  -3.438        -13.567
  -3.436        -13.563
  -3.434        -13.559
  -3.432        -13.555
  -3.430        -13.551
  -3.428        -13.548
  -3.425        -13.544
  -3.423        -13.540
  -3.421        -13.536
  -3.419        -13.532
  -3.417        -13.528
  -3.415        -13.524
  -3.412        -13.520
  -3.410        -13.516
  -3.408        -13.512
  -3.406        -13.509
  -3.404        -13.505
  -3.402        -13.501
  -3.399        -13.497
  -3.397        -13.493
  -3.395        -13.489
  -3.393        -13.485
  -3.391        -13.481
  -3.389        -13.478
  -3.386        -13.474
  -3.384        -13.470
  -3.382        -13.466
  -3.380        -13.462
  -3.378        -13.458
  -3.376        -13.454
  -3.373        -13.451
  -3.371        -13.447
  -3.369        -13.443
  -3.367        -13.439
  -3.365        -13.435
  -3.362        -13.431
  -3.360        -13.428
  -3.358        -13.424
  -3.356        -13.420
  -3.354        -13.416
  -3.352        -13.412
  -3.349        -13.408
  -3.347        -13.405
  -3.345        -13.401
  -3.343        -13.397
  -3.341        -13.393
  -3.339        -13.389
  -3.336        -13.386
  -3.334        -13.382
  -3.332        -13.378
  -3.330        -13.374
  -3.328        -13.371
  -3.326        -13.367
  -3.323        -13.363
  -3.321        -13.359
  -3.319        -13.355
  -3.317        -13.352
  -3.315        -13.348
  -3.313        -13.344
  -3.310        -13.340
  -3.308        -13.337
  -3.306        -13.333
  -3.304        -13.329
  -3.302        -13.325
  -3.300        -13.321
  -3.297        -13.318
  -3.295        -13.314
  -3.293        -13.310
  -3.291        -13.307
  -3.289        -13.303
  -3.287        -13.299
  -3.284        -13.295
  -3.282        -13.292
  -3.280        -13.288
  -3.278        -13.284
  -3.276        -13.281
  -3.273        -13.277
  -3.271        -13.273
  -3.269        -13.269
  -3.267        -13.266
  -3.265        -13.262
  -3.263        -13.258
  -3.260        -13.255
  -3.258        -13.251
  -3.256        -13.247
  -3.254        -13.244
  -3.252        -13.240
  -3.250        -13.236
  -3.247        -13.233
  -3.245        -13.229
  -3.243        -13.225
  -3.241        -13.222
  -3.239        -13.218
  -3.237        -13.214
  -3.234        -13.211
  -3.232        -13.207
  -3.230        -13.203
  -3.228        -13.200
  -3.226        -13.196
  -3.224        -13.193
  -3.221        -13.189
  -3.219        -13.185
  -3.217        -13.182
  -3.215        -13.178
  -3.213        -13.174
  -3.211        -13.171
  -3.208        -13.167
  -3.206        -13.164
  -3.204        -13.160
  -3.202        -13.157
  -3.200        -13.153
  -3.197        -13.149
  -3.195        -13.146
  -3.193        -13.142
  -3.191        -13.139
  -3.189        -13.135
  -3.187        -13.132
  -3.184        -13.128
  -3.182        -13.125
  -3.180        -13.121
  -3.178        -13.117
  -3.176        -13.114
  -3.174        -13.110
  -3.171        -13.107
  -3.169        -13.103
  -3.167        -13.100
  -3.165        -13.096
  -3.163        -13.093
  -3.161        -13.089
  -3.158        -13.086
  -3.156        -13.082
  -3.154        -13.079
  -3.152        -13.075
  -3.150        -13.072
  -3.148        -13.069
  -3.145        -13.065
  -3.143        -13.062
  -3.141        -13.058
  -3.139        -13.055
  -3.137        -13.051
  -3.135        -13.048
  -3.132        -13.044
  -3.130        -13.041
  -3.128        -13.038
  -3.126        -13.034
  -3.124        -13.031
  -3.122        -13.027
  -3.119        -13.024
  -3.117        -13.020
  -3.115        -13.017
  -3.113        -13.014
  -3.111        -13.010
  -3.108        -13.007
  -3.106        -13.004
  -3.104        -13.000
  -3.102        -12.997
  -3.100        -12.994
  -3.098        -12.990
  -3.095        -12.987
  -3.093        -12.983
  -3.091        -12.980
  -3.089        -12.977
  -3.087        -12.973
  -3.085        -12.970
  -3.082        -12.967
  -3.080        -12.964
  -3.078        -12.960
  -3.076        -12.957
  -3.074        -12.954
  -3.072        -12.951
  -3.069        -12.947
  -3.067        -12.944
  -3.065        -12.941
  -3.063        -12.937
  -3.061        -12.934
  -3.059        -12.931
  -3.056        -12.928
  -3.054        -12.924
  -3.052        -12.921
  -3.050        -12.918
  -3.048        -12.915
  -3.046        -12.912
  -3.043        -12.908
  -3.041        -12.905
  -3.039        -12.902
  -3.037        -12.899
  -3.035        -12.896
  -3.032        -12.892
  -3.030        -12.889
  -3.028        -12.886
  -3.026        -12.883
  -3.024        -12.880
  -3.022        -12.877
  -3.019        -12.874
  -3.017        -12.870
  -3.015        -12.867
  -3.013        -12.864
  -3.011        -12.861
  -3.009        -12.858
  -3.006        -12.855
  -3.004        -12.852
  -3.002        -12.849
  -3.000        -12.846
  -2.998        -12.843
  -2.996        -12.840
  -2.993        -12.837
  -2.991        -12.834
  -2.989        -12.831
  -2.987        -12.827
  -2.985        -12.824
  -2.983        -12.822
  -2.980        -12.819
  -2.978        -12.815
  -2.976        -12.813
  -2.974        -12.810
  -2.972        -12.807
  -2.970        -12.804
  -2.967        -12.801
  -2.965        -12.798
  -2.963        -12.795
  -2.961        -12.792
  -2.959        -12.789
  -2.956        -12.786
  -2.954        -12.783
  -2.952        -12.780
  -2.950        -12.777
  -2.948        -12.774
  -2.946        -12.772
  -2.944        -12.769
  -2.941        -12.766
  -2.939        -12.763
  -2.937        -12.760
  -2.935        -12.757
  -2.933        -12.755
  -2.930        -12.752
  -2.928        -12.749
  -2.926        -12.746
  -2.924        -12.743
  -2.922        -12.741
  -2.920        -12.738
  -2.917        -12.735
  -2.915        -12.732
  -2.913        -12.730
  -2.911        -12.727
  -2.909        -12.724
  -2.907        -12.722
  -2.904        -12.719
  -2.902        -12.716
  -2.900        -12.714
  -2.898        -12.711
  -2.896        -12.708
  -2.894        -12.706
  -2.891        -12.703
  -2.889        -12.700
  -2.887        -12.698
  -2.885        -12.695
  -2.883        -12.693
  -2.880        -12.690
  -2.878        -12.687
  -2.876        -12.685
  -2.874        -12.682
  -2.872        -12.680
  -2.870        -12.677
  -2.867        -12.675
  -2.865        -12.672
  -2.863        -12.669
  -2.861        -12.667
  -2.859        -12.665
  -2.857        -12.662
  -2.855        -12.659
  -2.852        -12.657
  -2.850        -12.655
  -2.848        -12.652
  -2.846        -12.650
  -2.843        -12.648
  -2.842        -12.645
  -2.839        -12.643
  -2.837        -12.640
  -2.835        -12.638
  -2.833        -12.636
  -2.831        -12.633
  -2.828        -12.631
  -2.826        -12.629
  -2.824        -12.626
  -2.822        -12.624
  -2.820        -12.622
  -2.817        -12.619
  -2.815        -12.617
  -2.813        -12.615
  -2.811        -12.613
  -2.809        -12.611
  -2.807        -12.608
  -2.805        -12.606
  -2.802        -12.604
  -2.800        -12.602
  -2.798        -12.600
  -2.796        -12.598
  -2.794        -12.596
  -2.792        -12.593
  -2.789        -12.591
  -2.787        -12.589
  -2.785        -12.587
  -2.783        -12.585
  -2.781        -12.583
  -2.779        -12.581
  -2.776        -12.579
  -2.774        -12.577
  -2.772        -12.575
  -2.770        -12.573
  -2.767        -12.571
  -2.765        -12.569
  -2.763        -12.567
  -2.761        -12.565
  -2.759        -12.564
  -2.757        -12.562
  -2.754        -12.560
  -2.753        -12.558
  -2.750        -12.556
  -2.748        -12.554
  -2.746        -12.552
  -2.744        -12.551
  -2.741        -12.549
  -2.739        -12.547
  -2.737        -12.545
  -2.735        -12.544
  -2.733        -12.542
  -2.731        -12.540
  -2.729        -12.538
  -2.726        -12.537
  -2.724        -12.535
  -2.722        -12.534
  -2.720        -12.532
  -2.718        -12.530
  -2.716        -12.529
  -2.713        -12.527
  -2.711        -12.526
  -2.709        -12.524
  -2.707        -12.523
  -2.705        -12.521
  -2.703        -12.520
  -2.700        -12.518
  -2.698        -12.517
  -2.696        -12.515
  -2.694        -12.514
  -2.692        -12.513
  -2.689        -12.511
  -2.687        -12.509
  -2.685        -12.508
  -2.683        -12.507
  -2.681        -12.506
  -2.679        -12.504
  -2.677        -12.503
  -2.674        -12.502
  -2.672        -12.501
  -2.670        -12.500
  -2.668        -12.498
  -2.666        -12.497
  -2.663        -12.496
  -2.661        -12.495
  -2.659        -12.494
  -2.657        -12.493
  -2.655        -12.491
  -2.653        -12.490
  -2.650        -12.490
  -2.648        -12.488
  -2.646        -12.487
  -2.644        -12.487
  -2.642        -12.485
  -2.640        -12.485
  -2.637        -12.484
  -2.635        -12.483
  -2.633        -12.482
  -2.631        -12.481
  -2.629        -12.480
  -2.626        -12.479
  -2.624        -12.479
  -2.622        -12.478
  -2.620        -12.477
  -2.618        -12.476
  -2.616        -12.476
  -2.614        -12.475
  -2.611        -12.475
  -2.609        -12.474
  -2.607        -12.473
  -2.605        -12.473
  -2.603        -12.472
  -2.600        -12.471
  -2.598        -12.471
  -2.596        -12.471
  -2.594        -12.470
  -2.592        -12.470
  -2.590        -12.469
  -2.587        -12.469
  -2.585        -12.468
  -2.583        -12.468
  -2.581        -12.468
  -2.579        -12.467
  -2.577        -12.467
  -2.574        -12.467
  -2.572        -12.467
  -2.570        -12.467
  -2.568        -12.466
  -2.566        -12.466
  -2.564        -12.466
  -2.561        -12.466
  -2.559        -12.466
  -2.557        -12.466
  -2.555        -12.466
  -2.553        -12.466
  -2.551        -12.466
  -2.548        -12.466
  -2.546        -12.466
  -2.544        -12.466
  -2.542        -12.466
  -2.540        -12.467
  -2.538        -12.467
  -2.535        -12.467
  -2.533        -12.467
  -2.531        -12.468
  -2.529        -12.468
  -2.527        -12.468
  -2.525        -12.469
  -2.522        -12.469
  -2.520        -12.469
  -2.518        -12.470
  -2.516        -12.471
  -2.514        -12.471
  -2.511        -12.471
  -2.509        -12.472
  -2.507        -12.473
  -2.505        -12.473
  -2.503        -12.474
  -2.501        -12.475
  -2.498        -12.476
  -2.496        -12.476
  -2.494        -12.477
  -2.492        -12.478
  -2.490        -12.479
  -2.488        -12.480
  -2.485        -12.481
  -2.483        -12.482
  -2.481        -12.483
  -2.479        -12.484
  -2.477        -12.485
  -2.475        -12.486
  -2.472        -12.487
  -2.470        -12.488
  -2.468        -12.489
  -2.466        -12.491
  -2.464        -12.492
  -2.462        -12.493
  -2.459        -12.494
  -2.457        -12.496
  -2.455        -12.497
  -2.453        -12.499
  -2.451        -12.500
  -2.448        -12.502
  -2.446        -12.503
  -2.444        -12.505
  -2.442        -12.506
  -2.440        -12.508
  -2.438        -12.510
  -2.435        -12.511
  -2.433        -12.513
  -2.431        -12.515
  -2.429        -12.517
  -2.427        -12.519
  -2.425        -12.521
  -2.422        -12.523
  -2.420        -12.525
  -2.418        -12.527
  -2.416        -12.529
  -2.414        -12.531
  -2.412        -12.533
  -2.409        -12.535
  -2.407        -12.538
  -2.405        -12.540
  -2.403        -12.542
  -2.401        -12.545
  -2.398        -12.547
  -2.396        -12.549
  -2.394        -12.552
  -2.392        -12.555
  -2.390        -12.557
  -2.388        -12.560
  -2.386        -12.562
  -2.383        -12.565
  -2.381        -12.568
  -2.379        -12.571
  -2.377        -12.573
  -2.375        -12.576
  -2.372        -12.579
  -2.370        -12.582
  -2.368        -12.585
  -2.366        -12.588
  -2.364        -12.591
  -2.362        -12.595
  -2.359        -12.598
  -2.357        -12.601
  -2.355        -12.604
  -2.353        -12.608
  -2.351        -12.611
  -2.349        -12.614
  -2.346        -12.618
  -2.344        -12.621
  -2.342        -12.625
  -2.340        -12.629
  -2.338        -12.632
  -2.336        -12.636
  -2.333        -12.640
  -2.331        -12.644
  -2.329        -12.647
  -2.327        -12.651
  -2.325        -12.655
  -2.323        -12.659
  -2.320        -12.663
  -2.318        -12.667
  -2.316        -12.672
  -2.314        -12.676
  -2.312        -12.680
  -2.309        -12.684
  -2.307        -12.689
  -2.305        -12.693
  -2.303        -12.698
  -2.301        -12.702
  -2.299        -12.707
  -2.297        -12.711
  -2.294        -12.716
  -2.292        -12.721
  -2.290        -12.726
  -2.288        -12.731
  -2.286        -12.735
  -2.283        -12.740
  -2.281        -12.745
  -2.279        -12.751
  -2.277        -12.756
  -2.275        -12.761
  -2.273        -12.766
  -2.270        -12.771
  -2.268        -12.777
  -2.266        -12.782
  -2.264        -12.788
  -2.262        -12.793
  -2.260        -12.799
  -2.257        -12.804
  -2.255        -12.810
  -2.253        -12.816
  -2.251        -12.822
  -2.249        -12.828
  -2.247        -12.834
  -2.244        -12.840
  -2.242        -12.846
  -2.240        -12.852
  -2.238        -12.858
  -2.236        -12.864
  -2.234        -12.871
  -2.231        -12.877
  -2.229        -12.884
  -2.227        -12.890
  -2.225        -12.897
  -2.223        -12.903
  -2.220        -12.910
  -2.218        -12.917
  -2.216        -12.924
  -2.214        -12.931
  -2.212        -12.938
  -2.210        -12.945
  -2.207        -12.952
  -2.205        -12.959
  -2.203        -12.966
  -2.201        -12.974
  -2.199        -12.981
  -2.197        -12.988
  -2.194        -12.996
  -2.192        -13.003
  -2.190        -13.011
  -2.188        -13.019
  -2.186        -13.027
  -2.184        -13.034
  -2.181        -13.043
  -2.179        -13.051
  -2.177        -13.059
  -2.175        -13.067
  -2.173        -13.075
  -2.171        -13.083
  -2.168        -13.092
  -2.166        -13.100
  -2.164        -13.109
  -2.162        -13.117
  -2.160        -13.126
  -2.158        -13.135
  -2.155        -13.144
  -2.153        -13.153
  -2.151        -13.162
  -2.149        -13.171
  -2.147        -13.180
  -2.145        -13.189
  -2.142        -13.198
  -2.140        -13.208
  -2.138        -13.217
  -2.136        -13.227
  -2.134        -13.236
  -2.131        -13.246
  -2.129        -13.256
  -2.127        -13.266
  -2.125        -13.276
  -2.123        -13.286
  -2.121        -13.296
  -2.118        -13.306
  -2.116        -13.316
  -2.114        -13.327
  -2.112        -13.337
  -2.110        -13.348
  -2.108        -13.358
  -2.105        -13.369
  -2.103        -13.380
  -2.101        -13.391
  -2.099        -13.401
  -2.097        -13.413
  -2.095        -13.424
  -2.092        -13.435
  -2.090        -13.446
  -2.088        -13.458
  -2.086        -13.469
  -2.084        -13.481
  -2.082        -13.492
  -2.079        -13.504
  -2.077        -13.516
  -2.075        -13.528
  -2.073        -13.540
  -2.071        -13.552
  -2.069        -13.564
  -2.066        -13.577
  -2.064        -13.589
  -2.062        -13.602
  -2.060        -13.614
  -2.058        -13.627
  -2.056        -13.640
  -2.053        -13.653
  -2.051        -13.666
  -2.049        -13.679
  -2.047        -13.692
  -2.045        -13.705
  -2.043        -13.718
  -2.040        -13.732
  -2.038        -13.745
  -2.036        -13.759
  -2.034        -13.773
  -2.032        -13.787
  -2.029        -13.801
  -2.027        -13.815
  -2.025        -13.829
  -2.023        -13.843
  -2.021        -13.858
  -2.019        -13.872
  -2.016        -13.887
  -2.014        -13.902
  -2.012        -13.916
  -2.010        -13.931
  -2.008        -13.946
  -2.006        -13.962
  -2.003        -13.977
  -2.001        -13.992
  -1.999        -14.008
  -1.997        -14.023
  -1.995        -14.039
  -1.993        -14.055
  -1.990        -14.071
  -1.988        -14.087
  -1.986        -14.103
  -1.984        -14.119
  -1.982        -14.135
  -1.980        -14.152
  -1.977        -14.168
  -1.975        -14.185
  -1.973        -14.202
  -1.971        -14.219
  -1.969        -14.236
  -1.967        -14.253
  -1.964        -14.271
  -1.962        -14.288
  -1.960        -14.305
  -1.958        -14.323
  -1.956        -14.341
  -1.953        -14.359
  -1.951        -14.377
  -1.949        -14.395
