# log Energy    log Jnu
# (eV)          (ergs/s/cm2/Hz/Sr)
  -6.864        -20.375
  -6.820        -20.288
  -6.777        -20.201
  -6.734        -20.114
  -6.690        -20.028
  -6.647        -19.941
  -6.603        -19.854
  -6.560        -19.767
  -6.516        -19.680
  -6.473        -19.593
  -6.430        -19.506
  -6.386        -19.419
  -6.343        -19.333
  -6.299        -19.246
  -6.256        -19.159
  -6.212        -19.072
  -6.169        -18.985
  -6.126        -18.898
  -6.082        -18.812
  -6.039        -18.725
  -5.995        -18.638
  -5.952        -18.551
  -5.908        -18.464
  -5.865        -18.378
  -5.822        -18.291
  -5.778        -18.204
  -5.735        -18.117
  -5.691        -18.030
  -5.648        -17.943
  -5.605        -17.856
  -5.561        -17.770
  -5.518        -17.683
  -5.474        -17.596
  -5.431        -17.509
  -5.387        -17.423
  -5.344        -17.336
  -5.300        -17.249
  -5.257        -17.162
  -5.214        -17.076
  -5.170        -16.989
  -5.127        -16.902
  -5.083        -16.816
  -5.040        -16.729
  -4.996        -16.642
  -4.953        -16.556
  -4.910        -16.469
  -4.866        -16.383
  -4.823        -16.296
  -4.779        -16.210
  -4.736        -16.123
  -4.692        -16.037
  -4.649        -15.951
  -4.606        -15.864
  -4.562        -15.778
  -4.519        -15.692
  -4.475        -15.606
  -4.432        -15.520
  -4.388        -15.434
  -4.345        -15.348
  -4.302        -15.262
  -4.258        -15.177
  -4.215        -15.091
  -4.171        -15.006
  -4.128        -14.921
  -4.084        -14.836
  -4.041        -14.751
  -3.998        -14.667
  -3.954        -14.583
  -3.911        -14.499
  -3.867        -14.415
  -3.824        -14.332
  -3.781        -14.249
  -3.737        -14.166
  -3.693        -14.084
  -3.650        -14.003
  -3.607        -13.923
  -3.584        -13.884
  -3.582        -13.874
  -3.580        -13.872
  -3.577        -13.869
  -3.575        -13.865
  -3.573        -13.861
  -3.571        -13.857
  -3.569        -13.853
  -3.567        -13.849
  -3.564        -13.845
  -3.562        -13.841
  -3.560        -13.837
  -3.558        -13.833
  -3.556        -13.829
  -3.554        -13.825
  -3.551        -13.821
  -3.549        -13.818
  -3.547        -13.813
  -3.545        -13.809
  -3.543        -13.806
  -3.540        -13.801
  -3.538        -13.798
  -3.536        -13.794
  -3.534        -13.790
  -3.532        -13.786
  -3.530        -13.782
  -3.528        -13.778
  -3.525        -13.774
  -3.523        -13.770
  -3.521        -13.766
  -3.519        -13.762
  -3.517        -13.758
  -3.514        -13.754
  -3.512        -13.750
  -3.510        -13.746
  -3.508        -13.742
  -3.506        -13.738
  -3.504        -13.734
  -3.502        -13.730
  -3.499        -13.726
  -3.497        -13.722
  -3.495        -13.718
  -3.493        -13.715
  -3.491        -13.711
  -3.488        -13.707
  -3.486        -13.703
  -3.484        -13.699
  -3.482        -13.695
  -3.480        -13.691
  -3.477        -13.687
  -3.475        -13.683
  -3.473        -13.679
  -3.471        -13.675
  -3.469        -13.671
  -3.467        -13.667
  -3.464        -13.664
  -3.462        -13.660
  -3.460        -13.656
  -3.458        -13.652
  -3.456        -13.648
  -3.454        -13.644
  -3.451        -13.640
  -3.449        -13.636
  -3.447        -13.632
  -3.445        -13.629
  -3.443        -13.625
  -3.441        -13.621
  -3.438        -13.617
  -3.436        -13.613
  -3.434        -13.609
  -3.432        -13.605
  -3.430        -13.601
  -3.428        -13.598
  -3.425        -13.594
  -3.423        -13.590
  -3.421        -13.586
  -3.419        -13.582
  -3.417        -13.578
  -3.415        -13.574
  -3.412        -13.571
  -3.410        -13.567
  -3.408        -13.563
  -3.406        -13.559
  -3.404        -13.555
  -3.402        -13.551
  -3.399        -13.548
  -3.397        -13.544
  -3.395        -13.540
  -3.393        -13.536
  -3.391        -13.532
  -3.389        -13.529
  -3.386        -13.525
  -3.384        -13.521
  -3.382        -13.517
  -3.380        -13.513
  -3.378        -13.510
  -3.376        -13.506
  -3.373        -13.502
  -3.371        -13.498
  -3.369        -13.494
  -3.367        -13.491
  -3.365        -13.487
  -3.362        -13.483
  -3.360        -13.479
  -3.358        -13.476
  -3.356        -13.472
  -3.354        -13.468
  -3.352        -13.464
  -3.349        -13.460
  -3.347        -13.457
  -3.345        -13.453
  -3.343        -13.449
  -3.341        -13.446
  -3.339        -13.442
  -3.336        -13.438
  -3.334        -13.434
  -3.332        -13.431
  -3.330        -13.427
  -3.328        -13.423
  -3.326        -13.419
  -3.323        -13.416
  -3.321        -13.412
  -3.319        -13.408
  -3.317        -13.404
  -3.315        -13.401
  -3.313        -13.397
  -3.310        -13.393
  -3.308        -13.390
  -3.306        -13.386
  -3.304        -13.382
  -3.302        -13.379
  -3.300        -13.375
  -3.297        -13.371
  -3.295        -13.368
  -3.293        -13.364
  -3.291        -13.360
  -3.289        -13.357
  -3.287        -13.353
  -3.284        -13.349
  -3.282        -13.346
  -3.280        -13.342
  -3.278        -13.338
  -3.276        -13.335
  -3.273        -13.331
  -3.271        -13.328
  -3.269        -13.324
  -3.267        -13.320
  -3.265        -13.317
  -3.263        -13.313
  -3.260        -13.309
  -3.258        -13.306
  -3.256        -13.302
  -3.254        -13.299
  -3.252        -13.295
  -3.250        -13.291
  -3.247        -13.288
  -3.245        -13.284
  -3.243        -13.281
  -3.241        -13.277
  -3.239        -13.273
  -3.237        -13.270
  -3.234        -13.266
  -3.232        -13.263
  -3.230        -13.259
  -3.228        -13.256
  -3.226        -13.252
  -3.224        -13.248
  -3.221        -13.245
  -3.219        -13.241
  -3.217        -13.238
  -3.215        -13.234
  -3.213        -13.231
  -3.211        -13.227
  -3.208        -13.224
  -3.206        -13.220
  -3.204        -13.217
  -3.202        -13.213
  -3.200        -13.210
  -3.197        -13.206
  -3.195        -13.203
  -3.193        -13.200
  -3.191        -13.196
  -3.189        -13.192
  -3.187        -13.189
  -3.184        -13.186
  -3.182        -13.182
  -3.180        -13.179
  -3.178        -13.175
  -3.176        -13.172
  -3.174        -13.168
  -3.171        -13.165
  -3.169        -13.161
  -3.167        -13.158
  -3.165        -13.155
  -3.163        -13.151
  -3.161        -13.148
  -3.158        -13.144
  -3.156        -13.141
  -3.154        -13.138
  -3.152        -13.134
  -3.150        -13.131
  -3.148        -13.127
  -3.145        -13.124
  -3.143        -13.121
  -3.141        -13.118
  -3.139        -13.114
  -3.137        -13.111
  -3.135        -13.107
  -3.132        -13.104
  -3.130        -13.101
  -3.128        -13.097
  -3.126        -13.094
  -3.124        -13.091
  -3.122        -13.087
  -3.119        -13.084
  -3.117        -13.081
  -3.115        -13.078
  -3.113        -13.074
  -3.111        -13.071
  -3.108        -13.068
  -3.106        -13.065
  -3.104        -13.061
  -3.102        -13.058
  -3.100        -13.055
  -3.098        -13.052
  -3.095        -13.048
  -3.093        -13.045
  -3.091        -13.042
  -3.089        -13.039
  -3.087        -13.035
  -3.085        -13.032
  -3.082        -13.029
  -3.080        -13.026
  -3.078        -13.023
  -3.076        -13.020
  -3.074        -13.016
  -3.072        -13.013
  -3.069        -13.010
  -3.067        -13.007
  -3.065        -13.004
  -3.063        -13.001
  -3.061        -12.998
  -3.059        -12.994
  -3.056        -12.991
  -3.054        -12.988
  -3.052        -12.985
  -3.050        -12.982
  -3.048        -12.979
  -3.046        -12.976
  -3.043        -12.973
  -3.041        -12.970
  -3.039        -12.967
  -3.037        -12.964
  -3.035        -12.961
  -3.032        -12.958
  -3.030        -12.954
  -3.028        -12.952
  -3.026        -12.948
  -3.024        -12.946
  -3.022        -12.942
  -3.019        -12.939
  -3.017        -12.936
  -3.015        -12.934
  -3.013        -12.931
  -3.011        -12.928
  -3.009        -12.925
  -3.006        -12.922
  -3.004        -12.919
  -3.002        -12.916
  -3.000        -12.913
  -2.998        -12.910
  -2.996        -12.907
  -2.993        -12.904
  -2.991        -12.901
  -2.989        -12.899
  -2.987        -12.896
  -2.985        -12.893
  -2.983        -12.890
  -2.980        -12.887
  -2.978        -12.884
  -2.976        -12.881
  -2.974        -12.879
  -2.972        -12.876
  -2.970        -12.873
  -2.967        -12.870
  -2.965        -12.867
  -2.963        -12.865
  -2.961        -12.862
  -2.959        -12.859
  -2.956        -12.856
  -2.954        -12.854
  -2.952        -12.851
  -2.950        -12.848
  -2.948        -12.846
  -2.946        -12.843
  -2.944        -12.840
  -2.941        -12.837
  -2.939        -12.835
  -2.937        -12.832
  -2.935        -12.830
  -2.933        -12.827
  -2.930        -12.824
  -2.928        -12.822
  -2.926        -12.819
  -2.924        -12.816
  -2.922        -12.814
  -2.920        -12.811
  -2.917        -12.809
  -2.915        -12.806
  -2.913        -12.804
  -2.911        -12.801
  -2.909        -12.799
  -2.907        -12.796
  -2.904        -12.794
  -2.902        -12.791
  -2.900        -12.789
  -2.898        -12.786
  -2.896        -12.784
  -2.894        -12.781
  -2.891        -12.779
  -2.889        -12.776
  -2.887        -12.774
  -2.885        -12.772
  -2.883        -12.769
  -2.880        -12.767
  -2.878        -12.764
  -2.876        -12.762
  -2.874        -12.760
  -2.872        -12.757
  -2.870        -12.755
  -2.867        -12.753
  -2.865        -12.750
  -2.863        -12.748
  -2.861        -12.746
  -2.859        -12.744
  -2.857        -12.741
  -2.855        -12.739
  -2.852        -12.737
  -2.850        -12.735
  -2.848        -12.733
  -2.846        -12.730
  -2.843        -12.728
  -2.842        -12.726
  -2.839        -12.724
  -2.837        -12.722
  -2.835        -12.720
  -2.833        -12.718
  -2.831        -12.715
  -2.828        -12.713
  -2.826        -12.711
  -2.824        -12.709
  -2.822        -12.707
  -2.820        -12.705
  -2.817        -12.703
  -2.815        -12.701
  -2.813        -12.699
  -2.811        -12.697
  -2.809        -12.695
  -2.807        -12.693
  -2.805        -12.691
  -2.802        -12.690
  -2.800        -12.688
  -2.798        -12.686
  -2.796        -12.684
  -2.794        -12.682
  -2.792        -12.680
  -2.789        -12.678
  -2.787        -12.676
  -2.785        -12.675
  -2.783        -12.673
  -2.781        -12.671
  -2.779        -12.670
  -2.776        -12.668
  -2.774        -12.666
  -2.772        -12.664
  -2.770        -12.663
  -2.767        -12.661
  -2.765        -12.659
  -2.763        -12.658
  -2.761        -12.656
  -2.759        -12.654
  -2.757        -12.653
  -2.754        -12.651
  -2.753        -12.650
  -2.750        -12.648
  -2.748        -12.647
  -2.746        -12.645
  -2.744        -12.644
  -2.741        -12.642
  -2.739        -12.641
  -2.737        -12.639
  -2.735        -12.638
  -2.733        -12.637
  -2.731        -12.635
  -2.729        -12.634
  -2.726        -12.632
  -2.724        -12.631
  -2.722        -12.630
  -2.720        -12.629
  -2.718        -12.627
  -2.716        -12.626
  -2.713        -12.625
  -2.711        -12.624
  -2.709        -12.622
  -2.707        -12.621
  -2.705        -12.620
  -2.703        -12.619
  -2.700        -12.618
  -2.698        -12.617
  -2.696        -12.616
  -2.694        -12.615
  -2.692        -12.614
  -2.689        -12.613
  -2.687        -12.611
  -2.685        -12.611
  -2.683        -12.610
  -2.681        -12.609
  -2.679        -12.608
  -2.677        -12.607
  -2.674        -12.606
  -2.672        -12.605
  -2.670        -12.604
  -2.668        -12.603
  -2.666        -12.603
  -2.663        -12.602
  -2.661        -12.601
  -2.659        -12.600
  -2.657        -12.600
  -2.655        -12.599
  -2.653        -12.599
  -2.650        -12.598
  -2.648        -12.597
  -2.646        -12.597
  -2.644        -12.596
  -2.642        -12.596
  -2.640        -12.595
  -2.637        -12.595
  -2.635        -12.594
  -2.633        -12.594
  -2.631        -12.593
  -2.629        -12.593
  -2.626        -12.593
  -2.624        -12.592
  -2.622        -12.592
  -2.620        -12.591
  -2.618        -12.591
  -2.616        -12.591
  -2.614        -12.591
  -2.611        -12.591
  -2.609        -12.590
  -2.607        -12.590
  -2.605        -12.590
  -2.603        -12.590
  -2.600        -12.590
  -2.598        -12.590
  -2.596        -12.590
  -2.594        -12.590
  -2.592        -12.590
  -2.590        -12.590
  -2.587        -12.590
  -2.585        -12.591
  -2.583        -12.591
  -2.581        -12.591
  -2.579        -12.591
  -2.577        -12.591
  -2.574        -12.592
  -2.572        -12.592
  -2.570        -12.592
  -2.568        -12.593
  -2.566        -12.593
  -2.564        -12.593
  -2.561        -12.594
  -2.559        -12.594
  -2.557        -12.595
  -2.555        -12.595
  -2.553        -12.596
  -2.551        -12.596
  -2.548        -12.597
  -2.546        -12.598
  -2.544        -12.598
  -2.542        -12.599
  -2.540        -12.600
  -2.538        -12.601
  -2.535        -12.601
  -2.533        -12.602
  -2.531        -12.603
  -2.529        -12.604
  -2.527        -12.605
  -2.525        -12.606
  -2.522        -12.607
  -2.520        -12.608
  -2.518        -12.609
  -2.516        -12.610
  -2.514        -12.611
  -2.511        -12.612
  -2.509        -12.614
  -2.507        -12.615
  -2.505        -12.616
  -2.503        -12.617
  -2.501        -12.619
  -2.498        -12.620
  -2.496        -12.622
  -2.494        -12.623
  -2.492        -12.624
  -2.490        -12.626
  -2.488        -12.628
  -2.485        -12.629
  -2.483        -12.631
  -2.481        -12.632
  -2.479        -12.634
  -2.477        -12.636
  -2.475        -12.638
  -2.472        -12.639
  -2.470        -12.641
  -2.468        -12.643
  -2.466        -12.645
  -2.464        -12.647
  -2.462        -12.649
  -2.459        -12.651
  -2.457        -12.653
  -2.455        -12.655
  -2.453        -12.658
  -2.451        -12.660
  -2.448        -12.662
  -2.446        -12.664
  -2.444        -12.667
  -2.442        -12.669
  -2.440        -12.671
  -2.438        -12.674
  -2.435        -12.676
  -2.433        -12.679
  -2.431        -12.681
  -2.429        -12.684
  -2.427        -12.687
  -2.425        -12.689
  -2.422        -12.692
  -2.420        -12.695
  -2.418        -12.698
  -2.416        -12.701
  -2.414        -12.704
  -2.412        -12.707
  -2.409        -12.710
  -2.407        -12.713
  -2.405        -12.716
  -2.403        -12.719
  -2.401        -12.722
  -2.398        -12.725
  -2.396        -12.729
  -2.394        -12.732
  -2.392        -12.735
  -2.390        -12.739
  -2.388        -12.742
  -2.386        -12.746
  -2.383        -12.749
  -2.381        -12.753
  -2.379        -12.757
  -2.377        -12.760
  -2.375        -12.764
  -2.372        -12.768
  -2.370        -12.772
  -2.368        -12.776
  -2.366        -12.780
  -2.364        -12.784
  -2.362        -12.788
  -2.359        -12.792
  -2.357        -12.796
  -2.355        -12.800
  -2.353        -12.805
  -2.351        -12.809
  -2.349        -12.813
  -2.346        -12.818
  -2.344        -12.822
  -2.342        -12.827
  -2.340        -12.831
  -2.338        -12.836
  -2.336        -12.841
  -2.333        -12.845
  -2.331        -12.850
  -2.329        -12.855
  -2.327        -12.860
  -2.325        -12.865
  -2.323        -12.870
  -2.320        -12.875
  -2.318        -12.880
  -2.316        -12.885
  -2.314        -12.890
  -2.312        -12.896
  -2.309        -12.901
  -2.307        -12.907
  -2.305        -12.912
  -2.303        -12.918
  -2.301        -12.923
  -2.299        -12.929
  -2.297        -12.935
  -2.294        -12.941
  -2.292        -12.946
  -2.290        -12.952
  -2.288        -12.958
  -2.286        -12.964
  -2.283        -12.970
  -2.281        -12.977
  -2.279        -12.983
  -2.277        -12.989
  -2.275        -12.995
  -2.273        -13.002
  -2.270        -13.008
  -2.268        -13.015
  -2.266        -13.021
  -2.264        -13.028
  -2.262        -13.035
  -2.260        -13.041
  -2.257        -13.048
  -2.255        -13.055
  -2.253        -13.062
  -2.251        -13.069
  -2.249        -13.076
  -2.247        -13.084
  -2.244        -13.091
  -2.242        -13.098
  -2.240        -13.106
  -2.238        -13.113
  -2.236        -13.120
  -2.234        -13.128
  -2.231        -13.136
  -2.229        -13.144
  -2.227        -13.152
  -2.225        -13.159
  -2.223        -13.167
  -2.220        -13.175
  -2.218        -13.183
  -2.216        -13.192
  -2.214        -13.200
  -2.212        -13.208
  -2.210        -13.217
  -2.207        -13.225
  -2.205        -13.234
  -2.203        -13.242
  -2.201        -13.251
  -2.199        -13.259
  -2.197        -13.269
  -2.194        -13.277
  -2.192        -13.286
  -2.190        -13.295
  -2.188        -13.305
  -2.186        -13.314
  -2.184        -13.323
  -2.181        -13.332
  -2.179        -13.342
  -2.177        -13.351
  -2.175        -13.361
  -2.173        -13.371
  -2.171        -13.381
  -2.168        -13.391
  -2.166        -13.400
  -2.164        -13.410
  -2.162        -13.421
  -2.160        -13.431
  -2.158        -13.441
  -2.155        -13.451
  -2.153        -13.462
  -2.151        -13.472
  -2.149        -13.483
  -2.147        -13.494
  -2.145        -13.505
  -2.142        -13.515
  -2.140        -13.526
  -2.138        -13.537
  -2.136        -13.549
  -2.134        -13.560
  -2.131        -13.571
  -2.129        -13.583
  -2.127        -13.594
  -2.125        -13.606
  -2.123        -13.617
  -2.121        -13.629
  -2.118        -13.641
  -2.116        -13.653
  -2.114        -13.665
  -2.112        -13.677
  -2.110        -13.689
  -2.108        -13.702
  -2.105        -13.714
  -2.103        -13.727
  -2.101        -13.739
  -2.099        -13.752
  -2.097        -13.765
  -2.095        -13.778
  -2.092        -13.791
  -2.090        -13.804
  -2.088        -13.817
  -2.086        -13.830
  -2.084        -13.843
  -2.082        -13.857
  -2.079        -13.871
  -2.077        -13.884
  -2.075        -13.898
  -2.073        -13.912
  -2.071        -13.926
  -2.069        -13.940
  -2.066        -13.954
  -2.064        -13.969
  -2.062        -13.983
  -2.060        -13.997
  -2.058        -14.012
  -2.056        -14.027
  -2.053        -14.042
  -2.051        -14.057
  -2.049        -14.072
  -2.047        -14.087
  -2.045        -14.102
  -2.043        -14.117
  -2.040        -14.133
  -2.038        -14.148
  -2.036        -14.164
  -2.034        -14.180
  -2.032        -14.196
  -2.029        -14.212
  -2.027        -14.228
  -2.025        -14.244
  -2.023        -14.261
  -2.021        -14.277
  -2.019        -14.294
  -2.016        -14.311
  -2.014        -14.327
  -2.012        -14.344
  -2.010        -14.362
  -2.008        -14.379
  -2.006        -14.396
  -2.003        -14.413
  -2.001        -14.431
  -1.999        -14.449
  -1.997        -14.466
  -1.995        -14.484
  -1.993        -14.502
  -1.990        -14.520
  -1.988        -14.539
  -1.986        -14.557
  -1.984        -14.576
  -1.982        -14.594
  -1.980        -14.613
  -1.977        -14.632
  -1.975        -14.651
  -1.973        -14.670
  -1.971        -14.689
  -1.969        -14.709
  -1.967        -14.728
  -1.964        -14.748
  -1.962        -14.768
  -1.960        -14.788
  -1.958        -14.808
  -1.956        -14.828
  -1.953        -14.848
  -1.951        -14.869
  -1.949        -14.890
