# log Energy    log Jnu
# (eV)          (ergs/s/cm2/Hz/Sr)
  -6.864        -20.831
  -6.820        -20.744
  -6.777        -20.657
  -6.734        -20.570
  -6.690        -20.484
  -6.647        -20.397
  -6.603        -20.310
  -6.560        -20.223
  -6.516        -20.136
  -6.473        -20.049
  -6.430        -19.962
  -6.386        -19.876
  -6.343        -19.789
  -6.299        -19.702
  -6.256        -19.615
  -6.212        -19.528
  -6.169        -19.442
  -6.126        -19.355
  -6.082        -19.268
  -6.039        -19.181
  -5.995        -19.094
  -5.952        -19.008
  -5.908        -18.921
  -5.865        -18.834
  -5.822        -18.747
  -5.778        -18.660
  -5.735        -18.574
  -5.691        -18.487
  -5.648        -18.400
  -5.605        -18.314
  -5.561        -18.227
  -5.518        -18.140
  -5.474        -18.054
  -5.431        -17.967
  -5.387        -17.880
  -5.344        -17.794
  -5.300        -17.707
  -5.257        -17.621
  -5.214        -17.535
  -5.170        -17.448
  -5.127        -17.362
  -5.083        -17.275
  -5.040        -17.189
  -4.996        -17.103
  -4.953        -17.017
  -4.910        -16.931
  -4.866        -16.845
  -4.823        -16.759
  -4.779        -16.673
  -4.736        -16.587
  -4.692        -16.502
  -4.649        -16.417
  -4.606        -16.331
  -4.562        -16.246
  -4.519        -16.162
  -4.475        -16.077
  -4.432        -15.993
  -4.388        -15.909
  -4.345        -15.825
  -4.302        -15.741
  -4.258        -15.658
  -4.215        -15.575
  -4.171        -15.493
  -4.128        -15.411
  -4.084        -15.330
  -4.041        -15.250
  -3.998        -15.170
  -3.954        -15.091
  -3.911        -15.012
  -3.867        -14.935
  -3.824        -14.859
  -3.781        -14.784
  -3.737        -14.710
  -3.693        -14.638
  -3.650        -14.568
  -3.607        -14.500
  -3.584        -14.468
  -3.582        -14.459
  -3.580        -14.458
  -3.577        -14.455
  -3.575        -14.452
  -3.573        -14.449
  -3.571        -14.445
  -3.569        -14.442
  -3.567        -14.439
  -3.564        -14.436
  -3.562        -14.432
  -3.560        -14.429
  -3.558        -14.426
  -3.556        -14.423
  -3.554        -14.419
  -3.551        -14.416
  -3.549        -14.413
  -3.547        -14.410
  -3.545        -14.406
  -3.543        -14.403
  -3.540        -14.400
  -3.538        -14.397
  -3.536        -14.394
  -3.534        -14.390
  -3.532        -14.387
  -3.530        -14.384
  -3.528        -14.381
  -3.525        -14.378
  -3.523        -14.375
  -3.521        -14.372
  -3.519        -14.368
  -3.517        -14.365
  -3.514        -14.362
  -3.512        -14.359
  -3.510        -14.356
  -3.508        -14.353
  -3.506        -14.350
  -3.504        -14.347
  -3.502        -14.344
  -3.499        -14.341
  -3.497        -14.338
  -3.495        -14.334
  -3.493        -14.331
  -3.491        -14.328
  -3.488        -14.325
  -3.486        -14.322
  -3.484        -14.319
  -3.482        -14.316
  -3.480        -14.313
  -3.477        -14.310
  -3.475        -14.307
  -3.473        -14.304
  -3.471        -14.301
  -3.469        -14.298
  -3.467        -14.295
  -3.464        -14.293
  -3.462        -14.290
  -3.460        -14.287
  -3.458        -14.284
  -3.456        -14.281
  -3.454        -14.278
  -3.451        -14.275
  -3.449        -14.272
  -3.447        -14.269
  -3.445        -14.266
  -3.443        -14.263
  -3.441        -14.261
  -3.438        -14.258
  -3.436        -14.255
  -3.434        -14.252
  -3.432        -14.249
  -3.430        -14.246
  -3.428        -14.244
  -3.425        -14.241
  -3.423        -14.238
  -3.421        -14.235
  -3.419        -14.233
  -3.417        -14.230
  -3.415        -14.227
  -3.412        -14.224
  -3.410        -14.221
  -3.408        -14.219
  -3.406        -14.216
  -3.404        -14.213
  -3.402        -14.211
  -3.399        -14.208
  -3.397        -14.205
  -3.395        -14.203
  -3.393        -14.200
  -3.391        -14.197
  -3.389        -14.195
  -3.386        -14.192
  -3.384        -14.189
  -3.382        -14.187
  -3.380        -14.184
  -3.378        -14.182
  -3.376        -14.179
  -3.373        -14.176
  -3.371        -14.174
  -3.369        -14.171
  -3.367        -14.169
  -3.365        -14.166
  -3.362        -14.164
  -3.360        -14.161
  -3.358        -14.159
  -3.356        -14.156
  -3.354        -14.154
  -3.352        -14.151
  -3.349        -14.149
  -3.347        -14.146
  -3.345        -14.144
  -3.343        -14.142
  -3.341        -14.139
  -3.339        -14.137
  -3.336        -14.135
  -3.334        -14.132
  -3.332        -14.130
  -3.330        -14.127
  -3.328        -14.125
  -3.326        -14.123
  -3.323        -14.121
  -3.321        -14.118
  -3.319        -14.116
  -3.317        -14.114
  -3.315        -14.111
  -3.313        -14.109
  -3.310        -14.107
  -3.308        -14.105
  -3.306        -14.103
  -3.304        -14.100
  -3.302        -14.098
  -3.300        -14.096
  -3.297        -14.094
  -3.295        -14.092
  -3.293        -14.090
  -3.291        -14.087
  -3.289        -14.085
  -3.287        -14.083
  -3.284        -14.081
  -3.282        -14.079
  -3.280        -14.077
  -3.278        -14.075
  -3.276        -14.073
  -3.273        -14.071
  -3.271        -14.069
  -3.269        -14.067
  -3.267        -14.065
  -3.265        -14.063
  -3.263        -14.061
  -3.260        -14.059
  -3.258        -14.057
  -3.256        -14.055
  -3.254        -14.054
  -3.252        -14.052
  -3.250        -14.050
  -3.247        -14.048
  -3.245        -14.046
  -3.243        -14.044
  -3.241        -14.043
  -3.239        -14.041
  -3.237        -14.039
  -3.234        -14.037
  -3.232        -14.035
  -3.230        -14.034
  -3.228        -14.032
  -3.226        -14.030
  -3.224        -14.029
  -3.221        -14.027
  -3.219        -14.025
  -3.217        -14.024
  -3.215        -14.022
  -3.213        -14.021
  -3.211        -14.019
  -3.208        -14.018
  -3.206        -14.016
  -3.204        -14.015
  -3.202        -14.013
  -3.200        -14.011
  -3.197        -14.010
  -3.195        -14.009
  -3.193        -14.007
  -3.191        -14.006
  -3.189        -14.004
  -3.187        -14.003
  -3.184        -14.002
  -3.182        -14.000
  -3.180        -13.999
  -3.178        -13.998
  -3.176        -13.996
  -3.174        -13.995
  -3.171        -13.994
  -3.169        -13.993
  -3.167        -13.991
  -3.165        -13.990
  -3.163        -13.989
  -3.161        -13.988
  -3.158        -13.987
  -3.156        -13.986
  -3.154        -13.985
  -3.152        -13.983
  -3.150        -13.982
  -3.148        -13.981
  -3.145        -13.980
  -3.143        -13.979
  -3.141        -13.978
  -3.139        -13.977
  -3.137        -13.977
  -3.135        -13.976
  -3.132        -13.975
  -3.130        -13.974
  -3.128        -13.973
  -3.126        -13.972
  -3.124        -13.971
  -3.122        -13.971
  -3.119        -13.970
  -3.117        -13.969
  -3.115        -13.968
  -3.113        -13.968
  -3.111        -13.967
  -3.108        -13.966
  -3.106        -13.966
  -3.104        -13.965
  -3.102        -13.965
  -3.100        -13.964
  -3.098        -13.963
  -3.095        -13.963
  -3.093        -13.962
  -3.091        -13.962
  -3.089        -13.962
  -3.087        -13.961
  -3.085        -13.961
  -3.082        -13.960
  -3.080        -13.960
  -3.078        -13.960
  -3.076        -13.959
  -3.074        -13.959
  -3.072        -13.959
  -3.069        -13.959
  -3.067        -13.958
  -3.065        -13.958
  -3.063        -13.958
  -3.061        -13.958
  -3.059        -13.958
  -3.056        -13.958
  -3.054        -13.958
  -3.052        -13.958
  -3.050        -13.958
  -3.048        -13.958
  -3.046        -13.958
  -3.043        -13.958
  -3.041        -13.958
  -3.039        -13.958
  -3.037        -13.959
  -3.035        -13.959
  -3.032        -13.959
  -3.030        -13.959
  -3.028        -13.960
  -3.026        -13.960
  -3.024        -13.960
  -3.022        -13.961
  -3.019        -13.961
  -3.017        -13.962
  -3.015        -13.962
  -3.013        -13.963
  -3.011        -13.963
  -3.009        -13.964
  -3.006        -13.964
  -3.004        -13.965
  -3.002        -13.965
  -3.000        -13.966
  -2.998        -13.967
  -2.996        -13.968
  -2.993        -13.968
  -2.991        -13.969
  -2.989        -13.970
  -2.987        -13.971
  -2.985        -13.972
  -2.983        -13.973
  -2.980        -13.974
  -2.978        -13.975
  -2.976        -13.976
  -2.974        -13.977
  -2.972        -13.978
  -2.970        -13.979
  -2.967        -13.980
  -2.965        -13.981
  -2.963        -13.983
  -2.961        -13.984
  -2.959        -13.985
  -2.956        -13.987
  -2.954        -13.988
  -2.952        -13.989
  -2.950        -13.991
  -2.948        -13.992
  -2.946        -13.994
  -2.944        -13.995
  -2.941        -13.997
  -2.939        -13.999
  -2.937        -14.000
  -2.935        -14.002
  -2.933        -14.004
  -2.930        -14.005
  -2.928        -14.007
  -2.926        -14.009
  -2.924        -14.011
  -2.922        -14.013
  -2.920        -14.015
  -2.917        -14.017
  -2.915        -14.019
  -2.913        -14.021
  -2.911        -14.023
  -2.909        -14.025
  -2.907        -14.028
  -2.904        -14.030
  -2.902        -14.032
  -2.900        -14.034
  -2.898        -14.037
  -2.896        -14.039
  -2.894        -14.042
  -2.891        -14.044
  -2.889        -14.047
  -2.887        -14.049
  -2.885        -14.052
  -2.883        -14.055
  -2.880        -14.057
  -2.878        -14.060
  -2.876        -14.063
  -2.874        -14.066
  -2.872        -14.068
  -2.870        -14.071
  -2.867        -14.075
  -2.865        -14.077
  -2.863        -14.080
  -2.861        -14.083
  -2.859        -14.087
  -2.857        -14.090
  -2.855        -14.093
  -2.852        -14.097
  -2.850        -14.100
  -2.848        -14.103
  -2.846        -14.106
  -2.843        -14.110
  -2.842        -14.114
  -2.839        -14.117
  -2.837        -14.121
  -2.835        -14.125
  -2.833        -14.128
  -2.831        -14.132
  -2.828        -14.136
  -2.826        -14.140
  -2.824        -14.143
  -2.822        -14.147
  -2.820        -14.151
  -2.817        -14.156
  -2.815        -14.160
  -2.813        -14.164
  -2.811        -14.168
  -2.809        -14.172
  -2.807        -14.177
  -2.805        -14.181
  -2.802        -14.186
  -2.800        -14.190
  -2.798        -14.195
  -2.796        -14.199
  -2.794        -14.204
  -2.792        -14.208
  -2.789        -14.213
  -2.787        -14.218
  -2.785        -14.223
  -2.783        -14.228
  -2.781        -14.233
  -2.779        -14.238
  -2.776        -14.243
  -2.774        -14.248
  -2.772        -14.253
  -2.770        -14.258
  -2.767        -14.264
  -2.765        -14.269
  -2.763        -14.275
  -2.761        -14.280
  -2.759        -14.285
  -2.757        -14.291
  -2.754        -14.297
  -2.753        -14.302
  -2.750        -14.308
  -2.748        -14.314
  -2.746        -14.320
  -2.744        -14.326
  -2.741        -14.332
  -2.739        -14.338
  -2.737        -14.344
  -2.735        -14.351
  -2.733        -14.357
  -2.731        -14.363
  -2.729        -14.370
  -2.726        -14.376
  -2.724        -14.383
  -2.722        -14.389
  -2.720        -14.396
  -2.718        -14.403
  -2.716        -14.409
  -2.713        -14.416
  -2.711        -14.423
  -2.709        -14.430
  -2.707        -14.437
  -2.705        -14.444
  -2.703        -14.451
  -2.700        -14.459
  -2.698        -14.466
  -2.696        -14.473
  -2.694        -14.481
  -2.692        -14.489
  -2.689        -14.496
  -2.687        -14.504
  -2.685        -14.511
  -2.683        -14.519
  -2.681        -14.527
  -2.679        -14.535
  -2.677        -14.543
  -2.674        -14.551
  -2.672        -14.560
  -2.670        -14.568
  -2.668        -14.576
  -2.666        -14.584
  -2.663        -14.593
  -2.661        -14.601
  -2.659        -14.610
  -2.657        -14.619
  -2.655        -14.627
  -2.653        -14.636
  -2.650        -14.645
  -2.648        -14.654
  -2.646        -14.663
  -2.644        -14.672
  -2.642        -14.682
  -2.640        -14.691
  -2.637        -14.700
  -2.635        -14.710
  -2.633        -14.719
  -2.631        -14.729
  -2.629        -14.739
  -2.626        -14.749
  -2.624        -14.758
  -2.622        -14.768
  -2.620        -14.778
  -2.618        -14.789
  -2.616        -14.798
  -2.614        -14.809
  -2.611        -14.820
  -2.609        -14.830
  -2.607        -14.840
  -2.605        -14.851
  -2.603        -14.862
  -2.600        -14.872
  -2.598        -14.883
  -2.596        -14.894
  -2.594        -14.905
  -2.592        -14.916
  -2.590        -14.928
  -2.587        -14.939
  -2.585        -14.950
  -2.583        -14.962
  -2.581        -14.973
  -2.579        -14.985
  -2.577        -14.997
  -2.574        -15.009
  -2.572        -15.021
  -2.570        -15.033
  -2.568        -15.045
  -2.566        -15.057
  -2.564        -15.069
  -2.561        -15.082
  -2.559        -15.095
  -2.557        -15.107
  -2.555        -15.120
  -2.553        -15.133
  -2.551        -15.145
  -2.548        -15.158
  -2.546        -15.171
  -2.544        -15.185
  -2.542        -15.198
  -2.540        -15.211
  -2.538        -15.225
  -2.535        -15.239
  -2.533        -15.252
  -2.531        -15.266
  -2.529        -15.280
  -2.527        -15.294
  -2.525        -15.308
  -2.522        -15.322
  -2.520        -15.336
  -2.518        -15.351
  -2.516        -15.365
  -2.514        -15.380
  -2.511        -15.395
  -2.509        -15.409
  -2.507        -15.424
  -2.505        -15.439
  -2.503        -15.455
  -2.501        -15.470
  -2.498        -15.485
  -2.496        -15.501
  -2.494        -15.516
  -2.492        -15.532
  -2.490        -15.548
  -2.488        -15.564
  -2.485        -15.580
  -2.483        -15.596
  -2.481        -15.612
  -2.479        -15.629
  -2.477        -15.645
  -2.475        -15.662
  -2.472        -15.678
  -2.470        -15.695
  -2.468        -15.712
  -2.466        -15.729
  -2.464        -15.746
  -2.462        -15.764
  -2.459        -15.781
  -2.457        -15.799
  -2.455        -15.816
  -2.453        -15.834
  -2.451        -15.852
  -2.448        -15.870
  -2.446        -15.888
  -2.444        -15.907
  -2.442        -15.925
  -2.440        -15.943
  -2.438        -15.962
  -2.435        -15.981
  -2.433        -16.000
  -2.431        -16.019
  -2.429        -16.038
  -2.427        -16.057
  -2.425        -16.077
  -2.422        -16.096
  -2.420        -16.116
  -2.418        -16.136
  -2.416        -16.156
  -2.414        -16.176
  -2.412        -16.196
  -2.409        -16.216
  -2.407        -16.237
  -2.405        -16.257
  -2.403        -16.278
  -2.401        -16.299
  -2.398        -16.320
  -2.396        -16.341
  -2.394        -16.363
  -2.392        -16.384
  -2.390        -16.406
  -2.388        -16.427
  -2.386        -16.449
  -2.383        -16.471
  -2.381        -16.493
  -2.379        -16.516
  -2.377        -16.538
  -2.375        -16.561
  -2.372        -16.583
  -2.370        -16.606
  -2.368        -16.629
  -2.366        -16.652
  -2.364        -16.676
  -2.362        -16.699
  -2.359        -16.723
  -2.357        -16.746
  -2.355        -16.770
  -2.353        -16.794
  -2.351        -16.819
  -2.349        -16.843
  -2.346        -16.868
  -2.344        -16.892
  -2.342        -16.917
  -2.340        -16.942
  -2.338        -16.967
  -2.336        -16.992
  -2.333        -17.018
  -2.331        -17.044
  -2.329        -17.069
  -2.327        -17.095
  -2.325        -17.121
  -2.323        -17.148
  -2.320        -17.174
  -2.318        -17.201
  -2.316        -17.227
  -2.314        -17.254
  -2.312        -17.281
  -2.309        -17.309
  -2.307        -17.336
  -2.305        -17.364
  -2.303        -17.391
  -2.301        -17.419
  -2.299        -17.447
  -2.297        -17.475
  -2.294        -17.504
  -2.292        -17.532
  -2.290        -17.561
  -2.288        -17.590
  -2.286        -17.619
  -2.283        -17.648
  -2.281        -17.678
  -2.279        -17.707
  -2.277        -17.737
  -2.275        -17.767
  -2.273        -17.797
  -2.270        -17.827
  -2.268        -17.857
  -2.266        -17.888
  -2.264        -17.919
  -2.262        -17.950
  -2.260        -17.981
  -2.257        -18.012
  -2.255        -18.043
  -2.253        -18.075
  -2.251        -18.106
  -2.249        -18.138
  -2.247        -18.170
  -2.244        -18.202
  -2.242        -18.234
  -2.240        -18.266
  -2.238        -18.299
  -2.236        -18.331
  -2.234        -18.364
  -2.231        -18.396
  -2.229        -18.429
  -2.227        -18.462
  -2.225        -18.495
  -2.223        -18.528
  -2.220        -18.561
  -2.218        -18.594
  -2.216        -18.627
  -2.214        -18.660
  -2.212        -18.693
  -2.210        -18.726
  -2.207        -18.758
  -2.205        -18.791
  -2.203        -18.824
  -2.201        -18.856
  -2.199        -18.888
  -2.197        -18.920
  -2.194        -18.952
  -2.192        -18.983
  -2.190        -19.014
  -2.188        -19.045
  -2.186        -19.075
  -2.184        -19.104
  -2.181        -19.133
  -2.179        -19.162
  -2.177        -19.190
  -2.175        -19.216
  -2.173        -19.243
  -2.171        -19.268
  -2.168        -19.293
  -2.166        -19.317
  -2.164        -19.339
  -2.162        -19.361
  -2.160        -19.382
  -2.158        -19.401
  -2.155        -19.420
  -2.153        -19.437
  -2.151        -19.454
  -2.149        -19.469
  -2.147        -19.483
  -2.145        -19.496
  -2.142        -19.508
  -2.140        -19.519
  -2.138        -19.528
  -2.136        -19.537
  -2.134        -19.545
  -2.131        -19.552
  -2.129        -19.558
  -2.127        -19.563
  -2.125        -19.567
  -2.123        -19.571
  -2.121        -19.574
  -2.118        -19.576
  -2.116        -19.577
  -2.114        -19.579
  -2.112        -19.579
  -2.110        -19.579
  -2.108        -19.579
  -2.105        -19.578
  -2.103        -19.577
  -2.101        -19.576
  -2.099        -19.574
  -2.097        -19.572
  -2.095        -19.569
  -2.092        -19.567
  -2.090        -19.564
  -2.088        -19.561
  -2.086        -19.558
  -2.084        -19.555
  -2.082        -19.552
  -2.079        -19.548
  -2.077        -19.545
  -2.075        -19.541
  -2.073        -19.538
  -2.071        -19.534
  -2.069        -19.530
  -2.066        -19.526
  -2.064        -19.522
  -2.062        -19.518
  -2.060        -19.514
  -2.058        -19.510
  -2.056        -19.506
  -2.053        -19.502
  -2.051        -19.498
  -2.049        -19.493
  -2.047        -19.489
  -2.045        -19.485
  -2.043        -19.481
  -2.040        -19.476
  -2.038        -19.472
  -2.036        -19.468
  -2.034        -19.464
  -2.032        -19.459
  -2.029        -19.455
  -2.027        -19.451
  -2.025        -19.446
  -2.023        -19.442
  -2.021        -19.438
  -2.019        -19.433
  -2.016        -19.429
  -2.014        -19.425
  -2.012        -19.421
  -2.010        -19.416
  -2.008        -19.412
  -2.006        -19.407
  -2.003        -19.403
  -2.001        -19.399
  -1.999        -19.394
  -1.997        -19.390
  -1.995        -19.386
  -1.993        -19.382
  -1.990        -19.377
  -1.988        -19.375
  -1.986        -19.376
  -1.984        -19.377
  -1.982        -19.377
  -1.980        -19.378
  -1.977        -19.379
  -1.975        -19.380
  -1.973        -19.381
  -1.971        -19.382
  -1.969        -19.383
  -1.967        -19.383
  -1.964        -19.384
  -1.962        -19.385
  -1.960        -19.386
  -1.958        -19.387
  -1.956        -19.388
  -1.953        -19.389
  -1.951        -19.390
  -1.949        -19.390
