# log Energy    log Jnu
# (eV)          (ergs/s/cm2/Hz/Sr)
  -6.864        -20.229
  -6.820        -20.142
  -6.777        -20.055
  -6.734        -19.968
  -6.690        -19.881
  -6.647        -19.795
  -6.603        -19.708
  -6.560        -19.621
  -6.516        -19.534
  -6.473        -19.447
  -6.430        -19.360
  -6.386        -19.273
  -6.343        -19.187
  -6.299        -19.100
  -6.256        -19.013
  -6.212        -18.926
  -6.169        -18.839
  -6.126        -18.752
  -6.082        -18.665
  -6.039        -18.579
  -5.995        -18.492
  -5.952        -18.405
  -5.908        -18.318
  -5.865        -18.231
  -5.822        -18.144
  -5.778        -18.058
  -5.735        -17.971
  -5.691        -17.884
  -5.648        -17.797
  -5.605        -17.710
  -5.561        -17.624
  -5.518        -17.537
  -5.474        -17.450
  -5.431        -17.363
  -5.387        -17.276
  -5.344        -17.190
  -5.300        -17.103
  -5.257        -17.016
  -5.214        -16.929
  -5.170        -16.842
  -5.127        -16.756
  -5.083        -16.669
  -5.040        -16.582
  -4.996        -16.496
  -4.953        -16.409
  -4.910        -16.322
  -4.866        -16.236
  -4.823        -16.149
  -4.779        -16.063
  -4.736        -15.976
  -4.692        -15.889
  -4.649        -15.803
  -4.606        -15.716
  -4.562        -15.630
  -4.519        -15.544
  -4.475        -15.457
  -4.432        -15.371
  -4.388        -15.285
  -4.345        -15.199
  -4.302        -15.113
  -4.258        -15.027
  -4.215        -14.941
  -4.171        -14.855
  -4.128        -14.770
  -4.084        -14.684
  -4.041        -14.599
  -3.998        -14.514
  -3.954        -14.429
  -3.911        -14.344
  -3.867        -14.259
  -3.824        -14.175
  -3.781        -14.091
  -3.737        -14.007
  -3.693        -13.924
  -3.650        -13.840
  -3.607        -13.759
  -3.584        -13.719
  -3.582        -13.709
  -3.580        -13.707
  -3.577        -13.704
  -3.575        -13.700
  -3.573        -13.696
  -3.571        -13.692
  -3.569        -13.687
  -3.567        -13.684
  -3.564        -13.679
  -3.562        -13.675
  -3.560        -13.671
  -3.558        -13.667
  -3.556        -13.663
  -3.554        -13.659
  -3.551        -13.655
  -3.549        -13.651
  -3.547        -13.647
  -3.545        -13.643
  -3.543        -13.639
  -3.540        -13.634
  -3.538        -13.630
  -3.536        -13.626
  -3.534        -13.622
  -3.532        -13.618
  -3.530        -13.614
  -3.528        -13.610
  -3.525        -13.606
  -3.523        -13.602
  -3.521        -13.598
  -3.519        -13.594
  -3.517        -13.590
  -3.514        -13.586
  -3.512        -13.582
  -3.510        -13.577
  -3.508        -13.573
  -3.506        -13.569
  -3.504        -13.565
  -3.502        -13.561
  -3.499        -13.557
  -3.497        -13.553
  -3.495        -13.549
  -3.493        -13.545
  -3.491        -13.541
  -3.488        -13.537
  -3.486        -13.533
  -3.484        -13.529
  -3.482        -13.525
  -3.480        -13.521
  -3.477        -13.517
  -3.475        -13.513
  -3.473        -13.508
  -3.471        -13.505
  -3.469        -13.501
  -3.467        -13.496
  -3.464        -13.493
  -3.462        -13.488
  -3.460        -13.484
  -3.458        -13.480
  -3.456        -13.476
  -3.454        -13.472
  -3.451        -13.468
  -3.449        -13.464
  -3.447        -13.460
  -3.445        -13.456
  -3.443        -13.452
  -3.441        -13.448
  -3.438        -13.444
  -3.436        -13.440
  -3.434        -13.436
  -3.432        -13.432
  -3.430        -13.428
  -3.428        -13.424
  -3.425        -13.420
  -3.423        -13.416
  -3.421        -13.412
  -3.419        -13.408
  -3.417        -13.404
  -3.415        -13.400
  -3.412        -13.396
  -3.410        -13.392
  -3.408        -13.388
  -3.406        -13.384
  -3.404        -13.380
  -3.402        -13.376
  -3.399        -13.372
  -3.397        -13.368
  -3.395        -13.364
  -3.393        -13.360
  -3.391        -13.356
  -3.389        -13.352
  -3.386        -13.348
  -3.384        -13.344
  -3.382        -13.341
  -3.380        -13.337
  -3.378        -13.333
  -3.376        -13.329
  -3.373        -13.325
  -3.371        -13.321
  -3.369        -13.317
  -3.367        -13.313
  -3.365        -13.309
  -3.362        -13.305
  -3.360        -13.301
  -3.358        -13.297
  -3.356        -13.293
  -3.354        -13.289
  -3.352        -13.285
  -3.349        -13.281
  -3.347        -13.277
  -3.345        -13.273
  -3.343        -13.269
  -3.341        -13.266
  -3.339        -13.262
  -3.336        -13.258
  -3.334        -13.254
  -3.332        -13.250
  -3.330        -13.246
  -3.328        -13.242
  -3.326        -13.238
  -3.323        -13.234
  -3.321        -13.230
  -3.319        -13.226
  -3.317        -13.223
  -3.315        -13.219
  -3.313        -13.215
  -3.310        -13.211
  -3.308        -13.207
  -3.306        -13.203
  -3.304        -13.199
  -3.302        -13.195
  -3.300        -13.191
  -3.297        -13.188
  -3.295        -13.184
  -3.293        -13.180
  -3.291        -13.176
  -3.289        -13.172
  -3.287        -13.168
  -3.284        -13.164
  -3.282        -13.160
  -3.280        -13.157
  -3.278        -13.153
  -3.276        -13.149
  -3.273        -13.145
  -3.271        -13.141
  -3.269        -13.137
  -3.267        -13.134
  -3.265        -13.130
  -3.263        -13.126
  -3.260        -13.122
  -3.258        -13.118
  -3.256        -13.114
  -3.254        -13.110
  -3.252        -13.107
  -3.250        -13.103
  -3.247        -13.099
  -3.245        -13.095
  -3.243        -13.091
  -3.241        -13.088
  -3.239        -13.084
  -3.237        -13.080
  -3.234        -13.076
  -3.232        -13.072
  -3.230        -13.068
  -3.228        -13.065
  -3.226        -13.061
  -3.224        -13.057
  -3.221        -13.053
  -3.219        -13.050
  -3.217        -13.046
  -3.215        -13.042
  -3.213        -13.038
  -3.211        -13.035
  -3.208        -13.031
  -3.206        -13.027
  -3.204        -13.023
  -3.202        -13.020
  -3.200        -13.016
  -3.197        -13.012
  -3.195        -13.008
  -3.193        -13.004
  -3.191        -13.001
  -3.189        -12.997
  -3.187        -12.993
  -3.184        -12.990
  -3.182        -12.986
  -3.180        -12.982
  -3.178        -12.978
  -3.176        -12.975
  -3.174        -12.971
  -3.171        -12.967
  -3.169        -12.964
  -3.167        -12.960
  -3.165        -12.956
  -3.163        -12.952
  -3.161        -12.949
  -3.158        -12.945
  -3.156        -12.941
  -3.154        -12.938
  -3.152        -12.934
  -3.150        -12.930
  -3.148        -12.927
  -3.145        -12.923
  -3.143        -12.919
  -3.141        -12.916
  -3.139        -12.912
  -3.137        -12.908
  -3.135        -12.905
  -3.132        -12.901
  -3.130        -12.897
  -3.128        -12.894
  -3.126        -12.890
  -3.124        -12.887
  -3.122        -12.883
  -3.119        -12.879
  -3.117        -12.876
  -3.115        -12.872
  -3.113        -12.868
  -3.111        -12.865
  -3.108        -12.861
  -3.106        -12.858
  -3.104        -12.854
  -3.102        -12.851
  -3.100        -12.847
  -3.098        -12.843
  -3.095        -12.840
  -3.093        -12.836
  -3.091        -12.833
  -3.089        -12.829
  -3.087        -12.825
  -3.085        -12.822
  -3.082        -12.818
  -3.080        -12.815
  -3.078        -12.811
  -3.076        -12.808
  -3.074        -12.804
  -3.072        -12.801
  -3.069        -12.797
  -3.067        -12.794
  -3.065        -12.790
  -3.063        -12.787
  -3.061        -12.783
  -3.059        -12.780
  -3.056        -12.776
  -3.054        -12.773
  -3.052        -12.769
  -3.050        -12.766
  -3.048        -12.762
  -3.046        -12.759
  -3.043        -12.755
  -3.041        -12.752
  -3.039        -12.748
  -3.037        -12.745
  -3.035        -12.741
  -3.032        -12.738
  -3.030        -12.735
  -3.028        -12.731
  -3.026        -12.728
  -3.024        -12.724
  -3.022        -12.721
  -3.019        -12.717
  -3.017        -12.714
  -3.015        -12.711
  -3.013        -12.707
  -3.011        -12.704
  -3.009        -12.700
  -3.006        -12.697
  -3.004        -12.694
  -3.002        -12.690
  -3.000        -12.687
  -2.998        -12.683
  -2.996        -12.680
  -2.993        -12.677
  -2.991        -12.673
  -2.989        -12.670
  -2.987        -12.667
  -2.985        -12.663
  -2.983        -12.660
  -2.980        -12.657
  -2.978        -12.653
  -2.976        -12.650
  -2.974        -12.647
  -2.972        -12.644
  -2.970        -12.640
  -2.967        -12.637
  -2.965        -12.634
  -2.963        -12.630
  -2.961        -12.627
  -2.959        -12.624
  -2.956        -12.621
  -2.954        -12.617
  -2.952        -12.614
  -2.950        -12.611
  -2.948        -12.608
  -2.946        -12.605
  -2.944        -12.601
  -2.941        -12.598
  -2.939        -12.595
  -2.937        -12.592
  -2.935        -12.588
  -2.933        -12.585
  -2.930        -12.582
  -2.928        -12.579
  -2.926        -12.576
  -2.924        -12.573
  -2.922        -12.570
  -2.920        -12.566
  -2.917        -12.563
  -2.915        -12.560
  -2.913        -12.557
  -2.911        -12.554
  -2.909        -12.551
  -2.907        -12.548
  -2.904        -12.544
  -2.902        -12.541
  -2.900        -12.538
  -2.898        -12.535
  -2.896        -12.532
  -2.894        -12.529
  -2.891        -12.526
  -2.889        -12.523
  -2.887        -12.520
  -2.885        -12.517
  -2.883        -12.514
  -2.880        -12.511
  -2.878        -12.508
  -2.876        -12.505
  -2.874        -12.502
  -2.872        -12.499
  -2.870        -12.496
  -2.867        -12.493
  -2.865        -12.490
  -2.863        -12.487
  -2.861        -12.484
  -2.859        -12.482
  -2.857        -12.478
  -2.855        -12.475
  -2.852        -12.473
  -2.850        -12.470
  -2.848        -12.467
  -2.846        -12.464
  -2.843        -12.461
  -2.842        -12.458
  -2.839        -12.455
  -2.837        -12.452
  -2.835        -12.450
  -2.833        -12.447
  -2.831        -12.444
  -2.828        -12.441
  -2.826        -12.439
  -2.824        -12.435
  -2.822        -12.433
  -2.820        -12.430
  -2.817        -12.427
  -2.815        -12.425
  -2.813        -12.422
  -2.811        -12.419
  -2.809        -12.416
  -2.807        -12.413
  -2.805        -12.411
  -2.802        -12.408
  -2.800        -12.405
  -2.798        -12.403
  -2.796        -12.400
  -2.794        -12.397
  -2.792        -12.394
  -2.789        -12.392
  -2.787        -12.389
  -2.785        -12.387
  -2.783        -12.384
  -2.781        -12.382
  -2.779        -12.379
  -2.776        -12.377
  -2.774        -12.374
  -2.772        -12.371
  -2.770        -12.368
  -2.767        -12.366
  -2.765        -12.363
  -2.763        -12.361
  -2.761        -12.358
  -2.759        -12.356
  -2.757        -12.353
  -2.754        -12.351
  -2.753        -12.348
  -2.750        -12.346
  -2.748        -12.344
  -2.746        -12.341
  -2.744        -12.339
  -2.741        -12.336
  -2.739        -12.334
  -2.737        -12.332
  -2.735        -12.329
  -2.733        -12.327
  -2.731        -12.324
  -2.729        -12.322
  -2.726        -12.320
  -2.724        -12.318
  -2.722        -12.315
  -2.720        -12.313
  -2.718        -12.311
  -2.716        -12.308
  -2.713        -12.306
  -2.711        -12.304
  -2.709        -12.301
  -2.707        -12.299
  -2.705        -12.297
  -2.703        -12.295
  -2.700        -12.293
  -2.698        -12.290
  -2.696        -12.288
  -2.694        -12.286
  -2.692        -12.284
  -2.689        -12.282
  -2.687        -12.280
  -2.685        -12.277
  -2.683        -12.276
  -2.681        -12.273
  -2.679        -12.271
  -2.677        -12.269
  -2.674        -12.267
  -2.672        -12.265
  -2.670        -12.263
  -2.668        -12.261
  -2.666        -12.259
  -2.663        -12.258
  -2.661        -12.255
  -2.659        -12.253
  -2.657        -12.252
  -2.655        -12.250
  -2.653        -12.248
  -2.650        -12.246
  -2.648        -12.244
  -2.646        -12.242
  -2.644        -12.241
  -2.642        -12.239
  -2.640        -12.237
  -2.637        -12.235
  -2.635        -12.233
  -2.633        -12.232
  -2.631        -12.230
  -2.629        -12.228
  -2.626        -12.226
  -2.624        -12.225
  -2.622        -12.223
  -2.620        -12.221
  -2.618        -12.220
  -2.616        -12.218
  -2.614        -12.216
  -2.611        -12.215
  -2.609        -12.213
  -2.607        -12.212
  -2.605        -12.210
  -2.603        -12.209
  -2.600        -12.207
  -2.598        -12.206
  -2.596        -12.204
  -2.594        -12.203
  -2.592        -12.201
  -2.590        -12.200
  -2.587        -12.199
  -2.585        -12.197
  -2.583        -12.196
  -2.581        -12.194
  -2.579        -12.193
  -2.577        -12.192
  -2.574        -12.191
  -2.572        -12.189
  -2.570        -12.188
  -2.568        -12.187
  -2.566        -12.186
  -2.564        -12.184
  -2.561        -12.183
  -2.559        -12.182
  -2.557        -12.181
  -2.555        -12.180
  -2.553        -12.179
  -2.551        -12.177
  -2.548        -12.176
  -2.546        -12.175
  -2.544        -12.174
  -2.542        -12.173
  -2.540        -12.172
  -2.538        -12.171
  -2.535        -12.171
  -2.533        -12.170
  -2.531        -12.169
  -2.529        -12.168
  -2.527        -12.167
  -2.525        -12.166
  -2.522        -12.165
  -2.520        -12.165
  -2.518        -12.164
  -2.516        -12.163
  -2.514        -12.162
  -2.511        -12.162
  -2.509        -12.161
  -2.507        -12.160
  -2.505        -12.160
  -2.503        -12.159
  -2.501        -12.158
  -2.498        -12.158
  -2.496        -12.158
  -2.494        -12.157
  -2.492        -12.156
  -2.490        -12.156
  -2.488        -12.155
  -2.485        -12.155
  -2.483        -12.155
  -2.481        -12.154
  -2.479        -12.154
  -2.477        -12.154
  -2.475        -12.153
  -2.472        -12.153
  -2.470        -12.153
  -2.468        -12.153
  -2.466        -12.152
  -2.464        -12.152
  -2.462        -12.152
  -2.459        -12.152
  -2.457        -12.152
  -2.455        -12.152
  -2.453        -12.152
  -2.451        -12.152
  -2.448        -12.152
  -2.446        -12.152
  -2.444        -12.152
  -2.442        -12.152
  -2.440        -12.152
  -2.438        -12.152
  -2.435        -12.152
  -2.433        -12.152
  -2.431        -12.153
  -2.429        -12.153
  -2.427        -12.153
  -2.425        -12.154
  -2.422        -12.154
  -2.420        -12.154
  -2.418        -12.155
  -2.416        -12.155
  -2.414        -12.156
  -2.412        -12.156
  -2.409        -12.157
  -2.407        -12.157
  -2.405        -12.158
  -2.403        -12.158
  -2.401        -12.159
  -2.398        -12.160
  -2.396        -12.160
  -2.394        -12.161
  -2.392        -12.162
  -2.390        -12.163
  -2.388        -12.164
  -2.386        -12.164
  -2.383        -12.165
  -2.381        -12.166
  -2.379        -12.167
  -2.377        -12.168
  -2.375        -12.169
  -2.372        -12.170
  -2.370        -12.171
  -2.368        -12.172
  -2.366        -12.174
  -2.364        -12.175
  -2.362        -12.176
  -2.359        -12.177
  -2.357        -12.179
  -2.355        -12.180
  -2.353        -12.181
  -2.351        -12.183
  -2.349        -12.184
  -2.346        -12.186
  -2.344        -12.187
  -2.342        -12.189
  -2.340        -12.190
  -2.338        -12.192
  -2.336        -12.194
  -2.333        -12.195
  -2.331        -12.197
  -2.329        -12.199
  -2.327        -12.201
  -2.325        -12.202
  -2.323        -12.204
  -2.320        -12.206
  -2.318        -12.208
  -2.316        -12.210
  -2.314        -12.212
  -2.312        -12.214
  -2.309        -12.216
  -2.307        -12.219
  -2.305        -12.221
  -2.303        -12.223
  -2.301        -12.225
  -2.299        -12.228
  -2.297        -12.230
  -2.294        -12.232
  -2.292        -12.235
  -2.290        -12.237
  -2.288        -12.240
  -2.286        -12.242
  -2.283        -12.245
  -2.281        -12.248
  -2.279        -12.250
  -2.277        -12.253
  -2.275        -12.256
  -2.273        -12.259
  -2.270        -12.261
  -2.268        -12.264
  -2.266        -12.267
  -2.264        -12.270
  -2.262        -12.273
  -2.260        -12.276
  -2.257        -12.280
  -2.255        -12.283
  -2.253        -12.286
  -2.251        -12.289
  -2.249        -12.293
  -2.247        -12.296
  -2.244        -12.299
  -2.242        -12.303
  -2.240        -12.306
  -2.238        -12.310
  -2.236        -12.313
  -2.234        -12.317
  -2.231        -12.321
  -2.229        -12.325
  -2.227        -12.328
  -2.225        -12.332
  -2.223        -12.336
  -2.220        -12.340
  -2.218        -12.344
  -2.216        -12.348
  -2.214        -12.352
  -2.212        -12.356
  -2.210        -12.361
  -2.207        -12.365
  -2.205        -12.369
  -2.203        -12.373
  -2.201        -12.378
  -2.199        -12.382
  -2.197        -12.387
  -2.194        -12.391
  -2.192        -12.396
  -2.190        -12.401
  -2.188        -12.405
  -2.186        -12.410
  -2.184        -12.415
  -2.181        -12.420
  -2.179        -12.425
  -2.177        -12.430
  -2.175        -12.435
  -2.173        -12.440
  -2.171        -12.445
  -2.168        -12.451
  -2.166        -12.456
  -2.164        -12.461
  -2.162        -12.467
  -2.160        -12.472
  -2.158        -12.478
  -2.155        -12.483
  -2.153        -12.489
  -2.151        -12.495
  -2.149        -12.500
  -2.147        -12.506
  -2.145        -12.512
  -2.142        -12.518
  -2.140        -12.524
  -2.138        -12.530
  -2.136        -12.536
  -2.134        -12.542
  -2.131        -12.549
  -2.129        -12.555
  -2.127        -12.561
  -2.125        -12.568
  -2.123        -12.574
  -2.121        -12.581
  -2.118        -12.588
  -2.116        -12.594
  -2.114        -12.601
  -2.112        -12.608
  -2.110        -12.615
  -2.108        -12.622
  -2.105        -12.629
  -2.103        -12.636
  -2.101        -12.643
  -2.099        -12.650
  -2.097        -12.658
  -2.095        -12.665
  -2.092        -12.672
  -2.090        -12.680
  -2.088        -12.687
  -2.086        -12.695
  -2.084        -12.703
  -2.082        -12.711
  -2.079        -12.718
  -2.077        -12.726
  -2.075        -12.734
  -2.073        -12.743
  -2.071        -12.751
  -2.069        -12.759
  -2.066        -12.767
  -2.064        -12.775
  -2.062        -12.784
  -2.060        -12.792
  -2.058        -12.801
  -2.056        -12.810
  -2.053        -12.818
  -2.051        -12.827
  -2.049        -12.836
  -2.047        -12.845
  -2.045        -12.854
  -2.043        -12.863
  -2.040        -12.872
  -2.038        -12.882
  -2.036        -12.891
  -2.034        -12.901
  -2.032        -12.910
  -2.029        -12.920
  -2.027        -12.929
  -2.025        -12.939
  -2.023        -12.949
  -2.021        -12.959
  -2.019        -12.969
  -2.016        -12.979
  -2.014        -12.989
  -2.012        -13.000
  -2.010        -13.010
  -2.008        -13.020
  -2.006        -13.031
  -2.003        -13.041
  -2.001        -13.052
  -1.999        -13.063
  -1.997        -13.074
  -1.995        -13.085
  -1.993        -13.096
  -1.990        -13.107
  -1.988        -13.118
  -1.986        -13.129
  -1.984        -13.141
  -1.982        -13.152
  -1.980        -13.164
  -1.977        -13.175
  -1.975        -13.187
  -1.973        -13.199
  -1.971        -13.211
  -1.969        -13.223
  -1.967        -13.235
  -1.964        -13.247
  -1.962        -13.260
  -1.960        -13.272
  -1.958        -13.284
  -1.956        -13.297
  -1.953        -13.310
  -1.951        -13.322
  -1.949        -13.335
