# log Energy    log Jnu
# (eV)          (ergs/s/cm2/Hz/Sr)
  -6.864        -20.397
  -6.820        -20.310
  -6.777        -20.223
  -6.734        -20.136
  -6.690        -20.050
  -6.647        -19.963
  -6.603        -19.876
  -6.560        -19.789
  -6.516        -19.702
  -6.473        -19.615
  -6.430        -19.529
  -6.386        -19.442
  -6.343        -19.355
  -6.299        -19.268
  -6.256        -19.181
  -6.212        -19.094
  -6.169        -19.008
  -6.126        -18.921
  -6.082        -18.834
  -6.039        -18.747
  -5.995        -18.660
  -5.952        -18.573
  -5.908        -18.487
  -5.865        -18.400
  -5.822        -18.313
  -5.778        -18.226
  -5.735        -18.139
  -5.691        -18.053
  -5.648        -17.966
  -5.605        -17.879
  -5.561        -17.792
  -5.518        -17.705
  -5.474        -17.619
  -5.431        -17.532
  -5.387        -17.445
  -5.344        -17.358
  -5.300        -17.272
  -5.257        -17.185
  -5.214        -17.098
  -5.170        -17.011
  -5.127        -16.925
  -5.083        -16.838
  -5.040        -16.751
  -4.996        -16.665
  -4.953        -16.578
  -4.910        -16.492
  -4.866        -16.405
  -4.823        -16.319
  -4.779        -16.232
  -4.736        -16.146
  -4.692        -16.060
  -4.649        -15.973
  -4.606        -15.887
  -4.562        -15.801
  -4.519        -15.715
  -4.475        -15.629
  -4.432        -15.543
  -4.388        -15.457
  -4.345        -15.371
  -4.302        -15.285
  -4.258        -15.200
  -4.215        -15.114
  -4.171        -15.029
  -4.128        -14.944
  -4.084        -14.859
  -4.041        -14.775
  -3.998        -14.690
  -3.954        -14.606
  -3.911        -14.523
  -3.867        -14.439
  -3.824        -14.356
  -3.781        -14.273
  -3.737        -14.191
  -3.693        -14.109
  -3.650        -14.028
  -3.607        -13.948
  -3.584        -13.910
  -3.582        -13.900
  -3.580        -13.898
  -3.577        -13.895
  -3.575        -13.891
  -3.573        -13.887
  -3.571        -13.883
  -3.569        -13.879
  -3.567        -13.875
  -3.564        -13.871
  -3.562        -13.867
  -3.560        -13.863
  -3.558        -13.859
  -3.556        -13.856
  -3.554        -13.851
  -3.551        -13.847
  -3.549        -13.844
  -3.547        -13.839
  -3.545        -13.835
  -3.543        -13.831
  -3.540        -13.828
  -3.538        -13.824
  -3.536        -13.820
  -3.534        -13.816
  -3.532        -13.812
  -3.530        -13.808
  -3.528        -13.804
  -3.525        -13.800
  -3.523        -13.796
  -3.521        -13.792
  -3.519        -13.788
  -3.517        -13.784
  -3.514        -13.780
  -3.512        -13.776
  -3.510        -13.772
  -3.508        -13.768
  -3.506        -13.765
  -3.504        -13.761
  -3.502        -13.757
  -3.499        -13.753
  -3.497        -13.749
  -3.495        -13.745
  -3.493        -13.741
  -3.491        -13.737
  -3.488        -13.733
  -3.486        -13.730
  -3.484        -13.726
  -3.482        -13.722
  -3.480        -13.718
  -3.477        -13.714
  -3.475        -13.710
  -3.473        -13.706
  -3.471        -13.702
  -3.469        -13.698
  -3.467        -13.694
  -3.464        -13.691
  -3.462        -13.687
  -3.460        -13.683
  -3.458        -13.679
  -3.456        -13.675
  -3.454        -13.671
  -3.451        -13.667
  -3.449        -13.663
  -3.447        -13.660
  -3.445        -13.656
  -3.443        -13.652
  -3.441        -13.648
  -3.438        -13.644
  -3.436        -13.640
  -3.434        -13.637
  -3.432        -13.633
  -3.430        -13.629
  -3.428        -13.625
  -3.425        -13.621
  -3.423        -13.617
  -3.421        -13.613
  -3.419        -13.610
  -3.417        -13.606
  -3.415        -13.602
  -3.412        -13.598
  -3.410        -13.594
  -3.408        -13.591
  -3.406        -13.587
  -3.404        -13.583
  -3.402        -13.579
  -3.399        -13.575
  -3.397        -13.572
  -3.395        -13.568
  -3.393        -13.564
  -3.391        -13.560
  -3.389        -13.556
  -3.386        -13.553
  -3.384        -13.549
  -3.382        -13.545
  -3.380        -13.541
  -3.378        -13.538
  -3.376        -13.534
  -3.373        -13.530
  -3.371        -13.526
  -3.369        -13.523
  -3.367        -13.519
  -3.365        -13.515
  -3.362        -13.511
  -3.360        -13.508
  -3.358        -13.504
  -3.356        -13.500
  -3.354        -13.496
  -3.352        -13.493
  -3.349        -13.489
  -3.347        -13.485
  -3.345        -13.482
  -3.343        -13.478
  -3.341        -13.474
  -3.339        -13.470
  -3.336        -13.467
  -3.334        -13.463
  -3.332        -13.459
  -3.330        -13.456
  -3.328        -13.452
  -3.326        -13.448
  -3.323        -13.445
  -3.321        -13.441
  -3.319        -13.437
  -3.317        -13.433
  -3.315        -13.430
  -3.313        -13.426
  -3.310        -13.422
  -3.308        -13.419
  -3.306        -13.415
  -3.304        -13.412
  -3.302        -13.408
  -3.300        -13.404
  -3.297        -13.401
  -3.295        -13.397
  -3.293        -13.393
  -3.291        -13.390
  -3.289        -13.386
  -3.287        -13.382
  -3.284        -13.379
  -3.282        -13.375
  -3.280        -13.372
  -3.278        -13.368
  -3.276        -13.364
  -3.273        -13.361
  -3.271        -13.357
  -3.269        -13.354
  -3.267        -13.350
  -3.265        -13.346
  -3.263        -13.343
  -3.260        -13.339
  -3.258        -13.336
  -3.256        -13.332
  -3.254        -13.329
  -3.252        -13.325
  -3.250        -13.322
  -3.247        -13.318
  -3.245        -13.314
  -3.243        -13.311
  -3.241        -13.307
  -3.239        -13.304
  -3.237        -13.300
  -3.234        -13.297
  -3.232        -13.293
  -3.230        -13.290
  -3.228        -13.286
  -3.226        -13.283
  -3.224        -13.279
  -3.221        -13.276
  -3.219        -13.272
  -3.217        -13.269
  -3.215        -13.265
  -3.213        -13.262
  -3.211        -13.258
  -3.208        -13.255
  -3.206        -13.252
  -3.204        -13.248
  -3.202        -13.245
  -3.200        -13.241
  -3.197        -13.238
  -3.195        -13.234
  -3.193        -13.231
  -3.191        -13.228
  -3.189        -13.224
  -3.187        -13.220
  -3.184        -13.217
  -3.182        -13.214
  -3.180        -13.211
  -3.178        -13.207
  -3.176        -13.204
  -3.174        -13.200
  -3.171        -13.197
  -3.169        -13.193
  -3.167        -13.190
  -3.165        -13.187
  -3.163        -13.183
  -3.161        -13.180
  -3.158        -13.177
  -3.156        -13.174
  -3.154        -13.170
  -3.152        -13.167
  -3.150        -13.164
  -3.148        -13.160
  -3.145        -13.157
  -3.143        -13.154
  -3.141        -13.150
  -3.139        -13.147
  -3.137        -13.144
  -3.135        -13.140
  -3.132        -13.137
  -3.130        -13.134
  -3.128        -13.131
  -3.126        -13.127
  -3.124        -13.124
  -3.122        -13.121
  -3.119        -13.118
  -3.117        -13.114
  -3.115        -13.111
  -3.113        -13.108
  -3.111        -13.105
  -3.108        -13.101
  -3.106        -13.098
  -3.104        -13.095
  -3.102        -13.092
  -3.100        -13.089
  -3.098        -13.086
  -3.095        -13.083
  -3.093        -13.079
  -3.091        -13.076
  -3.089        -13.073
  -3.087        -13.070
  -3.085        -13.067
  -3.082        -13.064
  -3.080        -13.060
  -3.078        -13.057
  -3.076        -13.054
  -3.074        -13.051
  -3.072        -13.048
  -3.069        -13.045
  -3.067        -13.042
  -3.065        -13.039
  -3.063        -13.036
  -3.061        -13.033
  -3.059        -13.030
  -3.056        -13.027
  -3.054        -13.024
  -3.052        -13.021
  -3.050        -13.017
  -3.048        -13.015
  -3.046        -13.011
  -3.043        -13.009
  -3.041        -13.005
  -3.039        -13.003
  -3.037        -13.000
  -3.035        -12.997
  -3.032        -12.994
  -3.030        -12.991
  -3.028        -12.988
  -3.026        -12.985
  -3.024        -12.982
  -3.022        -12.979
  -3.019        -12.976
  -3.017        -12.973
  -3.015        -12.970
  -3.013        -12.967
  -3.011        -12.965
  -3.009        -12.962
  -3.006        -12.959
  -3.004        -12.956
  -3.002        -12.953
  -3.000        -12.950
  -2.998        -12.947
  -2.996        -12.945
  -2.993        -12.942
  -2.991        -12.939
  -2.989        -12.936
  -2.987        -12.934
  -2.985        -12.931
  -2.983        -12.928
  -2.980        -12.925
  -2.978        -12.922
  -2.976        -12.920
  -2.974        -12.917
  -2.972        -12.914
  -2.970        -12.912
  -2.967        -12.909
  -2.965        -12.906
  -2.963        -12.904
  -2.961        -12.901
  -2.959        -12.898
  -2.956        -12.896
  -2.954        -12.893
  -2.952        -12.890
  -2.950        -12.888
  -2.948        -12.885
  -2.946        -12.883
  -2.944        -12.880
  -2.941        -12.877
  -2.939        -12.875
  -2.937        -12.872
  -2.935        -12.870
  -2.933        -12.867
  -2.930        -12.865
  -2.928        -12.862
  -2.926        -12.860
  -2.924        -12.857
  -2.922        -12.855
  -2.920        -12.852
  -2.917        -12.850
  -2.915        -12.847
  -2.913        -12.845
  -2.911        -12.843
  -2.909        -12.840
  -2.907        -12.838
  -2.904        -12.835
  -2.902        -12.833
  -2.900        -12.831
  -2.898        -12.828
  -2.896        -12.826
  -2.894        -12.824
  -2.891        -12.821
  -2.889        -12.819
  -2.887        -12.817
  -2.885        -12.815
  -2.883        -12.812
  -2.880        -12.810
  -2.878        -12.808
  -2.876        -12.805
  -2.874        -12.803
  -2.872        -12.801
  -2.870        -12.799
  -2.867        -12.797
  -2.865        -12.794
  -2.863        -12.792
  -2.861        -12.790
  -2.859        -12.788
  -2.857        -12.786
  -2.855        -12.784
  -2.852        -12.782
  -2.850        -12.779
  -2.848        -12.778
  -2.846        -12.775
  -2.843        -12.774
  -2.842        -12.771
  -2.839        -12.770
  -2.837        -12.767
  -2.835        -12.765
  -2.833        -12.764
  -2.831        -12.761
  -2.828        -12.760
  -2.826        -12.758
  -2.824        -12.756
  -2.822        -12.754
  -2.820        -12.752
  -2.817        -12.750
  -2.815        -12.748
  -2.813        -12.747
  -2.811        -12.745
  -2.809        -12.743
  -2.807        -12.741
  -2.805        -12.739
  -2.802        -12.738
  -2.800        -12.736
  -2.798        -12.734
  -2.796        -12.732
  -2.794        -12.731
  -2.792        -12.729
  -2.789        -12.727
  -2.787        -12.726
  -2.785        -12.724
  -2.783        -12.722
  -2.781        -12.721
  -2.779        -12.719
  -2.776        -12.718
  -2.774        -12.716
  -2.772        -12.714
  -2.770        -12.713
  -2.767        -12.712
  -2.765        -12.710
  -2.763        -12.709
  -2.761        -12.707
  -2.759        -12.706
  -2.757        -12.704
  -2.754        -12.703
  -2.753        -12.702
  -2.750        -12.700
  -2.748        -12.699
  -2.746        -12.698
  -2.744        -12.696
  -2.741        -12.695
  -2.739        -12.694
  -2.737        -12.692
  -2.735        -12.692
  -2.733        -12.690
  -2.731        -12.689
  -2.729        -12.688
  -2.726        -12.687
  -2.724        -12.686
  -2.722        -12.684
  -2.720        -12.683
  -2.718        -12.682
  -2.716        -12.681
  -2.713        -12.680
  -2.711        -12.679
  -2.709        -12.678
  -2.707        -12.677
  -2.705        -12.676
  -2.703        -12.675
  -2.700        -12.675
  -2.698        -12.673
  -2.696        -12.673
  -2.694        -12.672
  -2.692        -12.671
  -2.689        -12.670
  -2.687        -12.669
  -2.685        -12.668
  -2.683        -12.668
  -2.681        -12.667
  -2.679        -12.666
  -2.677        -12.666
  -2.674        -12.665
  -2.672        -12.665
  -2.670        -12.664
  -2.668        -12.664
  -2.666        -12.663
  -2.663        -12.662
  -2.661        -12.662
  -2.659        -12.661
  -2.657        -12.661
  -2.655        -12.660
  -2.653        -12.660
  -2.650        -12.660
  -2.648        -12.659
  -2.646        -12.659
  -2.644        -12.659
  -2.642        -12.658
  -2.640        -12.658
  -2.637        -12.658
  -2.635        -12.658
  -2.633        -12.657
  -2.631        -12.657
  -2.629        -12.657
  -2.626        -12.657
  -2.624        -12.657
  -2.622        -12.657
  -2.620        -12.657
  -2.618        -12.657
  -2.616        -12.657
  -2.614        -12.657
  -2.611        -12.657
  -2.609        -12.657
  -2.607        -12.657
  -2.605        -12.657
  -2.603        -12.658
  -2.600        -12.658
  -2.598        -12.658
  -2.596        -12.658
  -2.594        -12.659
  -2.592        -12.659
  -2.590        -12.659
  -2.587        -12.660
  -2.585        -12.660
  -2.583        -12.661
  -2.581        -12.661
  -2.579        -12.662
  -2.577        -12.662
  -2.574        -12.663
  -2.572        -12.663
  -2.570        -12.664
  -2.568        -12.665
  -2.566        -12.665
  -2.564        -12.666
  -2.561        -12.667
  -2.559        -12.668
  -2.557        -12.668
  -2.555        -12.669
  -2.553        -12.670
  -2.551        -12.671
  -2.548        -12.672
  -2.546        -12.673
  -2.544        -12.674
  -2.542        -12.675
  -2.540        -12.676
  -2.538        -12.677
  -2.535        -12.678
  -2.533        -12.680
  -2.531        -12.681
  -2.529        -12.682
  -2.527        -12.683
  -2.525        -12.684
  -2.522        -12.686
  -2.520        -12.687
  -2.518        -12.689
  -2.516        -12.690
  -2.514        -12.692
  -2.511        -12.693
  -2.509        -12.695
  -2.507        -12.696
  -2.505        -12.698
  -2.503        -12.700
  -2.501        -12.701
  -2.498        -12.703
  -2.496        -12.705
  -2.494        -12.707
  -2.492        -12.709
  -2.490        -12.711
  -2.488        -12.712
  -2.485        -12.714
  -2.483        -12.717
  -2.481        -12.719
  -2.479        -12.721
  -2.477        -12.723
  -2.475        -12.725
  -2.472        -12.727
  -2.470        -12.729
  -2.468        -12.732
  -2.466        -12.734
  -2.464        -12.736
  -2.462        -12.739
  -2.459        -12.741
  -2.457        -12.744
  -2.455        -12.746
  -2.453        -12.749
  -2.451        -12.752
  -2.448        -12.754
  -2.446        -12.757
  -2.444        -12.760
  -2.442        -12.763
  -2.440        -12.765
  -2.438        -12.768
  -2.435        -12.771
  -2.433        -12.774
  -2.431        -12.777
  -2.429        -12.780
  -2.427        -12.783
  -2.425        -12.787
  -2.422        -12.790
  -2.420        -12.793
  -2.418        -12.796
  -2.416        -12.800
  -2.414        -12.803
  -2.412        -12.807
  -2.409        -12.810
  -2.407        -12.813
  -2.405        -12.817
  -2.403        -12.821
  -2.401        -12.824
  -2.398        -12.828
  -2.396        -12.832
  -2.394        -12.836
  -2.392        -12.840
  -2.390        -12.844
  -2.388        -12.847
  -2.386        -12.852
  -2.383        -12.856
  -2.381        -12.860
  -2.379        -12.864
  -2.377        -12.868
  -2.375        -12.872
  -2.372        -12.877
  -2.370        -12.881
  -2.368        -12.886
  -2.366        -12.890
  -2.364        -12.895
  -2.362        -12.899
  -2.359        -12.904
  -2.357        -12.909
  -2.355        -12.914
  -2.353        -12.918
  -2.351        -12.923
  -2.349        -12.928
  -2.346        -12.933
  -2.344        -12.938
  -2.342        -12.943
  -2.340        -12.948
  -2.338        -12.953
  -2.336        -12.959
  -2.333        -12.964
  -2.331        -12.970
  -2.329        -12.975
  -2.327        -12.981
  -2.325        -12.986
  -2.323        -12.992
  -2.320        -12.997
  -2.318        -13.003
  -2.316        -13.009
  -2.314        -13.015
  -2.312        -13.021
  -2.309        -13.027
  -2.307        -13.033
  -2.305        -13.039
  -2.303        -13.045
  -2.301        -13.051
  -2.299        -13.058
  -2.297        -13.064
  -2.294        -13.070
  -2.292        -13.077
  -2.290        -13.083
  -2.288        -13.090
  -2.286        -13.097
  -2.283        -13.103
  -2.281        -13.110
  -2.279        -13.117
  -2.277        -13.124
  -2.275        -13.131
  -2.273        -13.138
  -2.270        -13.145
  -2.268        -13.152
  -2.266        -13.160
  -2.264        -13.167
  -2.262        -13.174
  -2.260        -13.182
  -2.257        -13.189
  -2.255        -13.197
  -2.253        -13.205
  -2.251        -13.213
  -2.249        -13.220
  -2.247        -13.228
  -2.244        -13.236
  -2.242        -13.244
  -2.240        -13.252
  -2.238        -13.261
  -2.236        -13.269
  -2.234        -13.277
  -2.231        -13.285
  -2.229        -13.294
  -2.227        -13.303
  -2.225        -13.311
  -2.223        -13.320
  -2.220        -13.329
  -2.218        -13.338
  -2.216        -13.347
  -2.214        -13.356
  -2.212        -13.365
  -2.210        -13.374
  -2.207        -13.383
  -2.205        -13.392
  -2.203        -13.402
  -2.201        -13.411
  -2.199        -13.421
  -2.197        -13.430
  -2.194        -13.440
  -2.192        -13.450
  -2.190        -13.460
  -2.188        -13.470
  -2.186        -13.480
  -2.184        -13.490
  -2.181        -13.500
  -2.179        -13.511
  -2.177        -13.521
  -2.175        -13.531
  -2.173        -13.542
  -2.171        -13.553
  -2.168        -13.563
  -2.166        -13.574
  -2.164        -13.585
  -2.162        -13.596
  -2.160        -13.607
  -2.158        -13.618
  -2.155        -13.630
  -2.153        -13.641
  -2.151        -13.652
  -2.149        -13.664
  -2.147        -13.675
  -2.145        -13.687
  -2.142        -13.699
  -2.140        -13.711
  -2.138        -13.723
  -2.136        -13.735
  -2.134        -13.747
  -2.131        -13.759
  -2.129        -13.772
  -2.127        -13.784
  -2.125        -13.797
  -2.123        -13.809
  -2.121        -13.822
  -2.118        -13.835
  -2.116        -13.848
  -2.114        -13.861
  -2.112        -13.874
  -2.110        -13.887
  -2.108        -13.900
  -2.105        -13.914
  -2.103        -13.927
  -2.101        -13.941
  -2.099        -13.955
  -2.097        -13.968
  -2.095        -13.982
  -2.092        -13.997
  -2.090        -14.011
  -2.088        -14.025
  -2.086        -14.039
  -2.084        -14.054
  -2.082        -14.068
  -2.079        -14.083
  -2.077        -14.098
  -2.075        -14.112
  -2.073        -14.127
  -2.071        -14.142
  -2.069        -14.158
  -2.066        -14.173
  -2.064        -14.188
  -2.062        -14.204
  -2.060        -14.219
  -2.058        -14.235
  -2.056        -14.251
  -2.053        -14.267
  -2.051        -14.283
  -2.049        -14.299
  -2.047        -14.315
  -2.045        -14.332
  -2.043        -14.348
  -2.040        -14.365
  -2.038        -14.382
  -2.036        -14.399
  -2.034        -14.415
  -2.032        -14.433
  -2.029        -14.450
  -2.027        -14.467
  -2.025        -14.485
  -2.023        -14.502
  -2.021        -14.520
  -2.019        -14.538
  -2.016        -14.556
  -2.014        -14.574
  -2.012        -14.592
  -2.010        -14.610
  -2.008        -14.629
  -2.006        -14.647
  -2.003        -14.666
  -2.001        -14.685
  -1.999        -14.704
  -1.997        -14.723
  -1.995        -14.742
  -1.993        -14.761
  -1.990        -14.781
  -1.988        -14.800
  -1.986        -14.820
  -1.984        -14.840
  -1.982        -14.860
  -1.980        -14.880
  -1.977        -14.900
  -1.975        -14.921
  -1.973        -14.941
  -1.971        -14.962
  -1.969        -14.983
  -1.967        -15.003
  -1.964        -15.024
  -1.962        -15.046
  -1.960        -15.067
  -1.958        -15.089
  -1.956        -15.110
  -1.953        -15.132
  -1.951        -15.154
  -1.949        -15.176
