# log Energy    log Jnu
# (eV)          (ergs/s/cm2/Hz/Sr)
  -6.864        -20.354
  -6.820        -20.267
  -6.777        -20.180
  -6.734        -20.093
  -6.690        -20.006
  -6.647        -19.919
  -6.603        -19.832
  -6.560        -19.746
  -6.516        -19.659
  -6.473        -19.572
  -6.430        -19.485
  -6.386        -19.398
  -6.343        -19.312
  -6.299        -19.225
  -6.256        -19.138
  -6.212        -19.051
  -6.169        -18.964
  -6.126        -18.877
  -6.082        -18.790
  -6.039        -18.704
  -5.995        -18.617
  -5.952        -18.530
  -5.908        -18.443
  -5.865        -18.357
  -5.822        -18.269
  -5.778        -18.183
  -5.735        -18.096
  -5.691        -18.009
  -5.648        -17.922
  -5.605        -17.835
  -5.561        -17.749
  -5.518        -17.662
  -5.474        -17.575
  -5.431        -17.488
  -5.387        -17.401
  -5.344        -17.315
  -5.300        -17.228
  -5.257        -17.141
  -5.214        -17.054
  -5.170        -16.968
  -5.127        -16.881
  -5.083        -16.794
  -5.040        -16.708
  -4.996        -16.621
  -4.953        -16.535
  -4.910        -16.448
  -4.866        -16.362
  -4.823        -16.275
  -4.779        -16.189
  -4.736        -16.102
  -4.692        -16.016
  -4.649        -15.929
  -4.606        -15.843
  -4.562        -15.756
  -4.519        -15.670
  -4.475        -15.584
  -4.432        -15.498
  -4.388        -15.412
  -4.345        -15.326
  -4.302        -15.241
  -4.258        -15.155
  -4.215        -15.069
  -4.171        -14.984
  -4.128        -14.899
  -4.084        -14.814
  -4.041        -14.729
  -3.998        -14.645
  -3.954        -14.560
  -3.911        -14.476
  -3.867        -14.392
  -3.824        -14.309
  -3.781        -14.226
  -3.737        -14.143
  -3.693        -14.061
  -3.650        -13.979
  -3.607        -13.898
  -3.584        -13.860
  -3.582        -13.850
  -3.580        -13.848
  -3.577        -13.845
  -3.575        -13.841
  -3.573        -13.837
  -3.571        -13.833
  -3.569        -13.829
  -3.567        -13.825
  -3.564        -13.821
  -3.562        -13.817
  -3.560        -13.813
  -3.558        -13.809
  -3.556        -13.805
  -3.554        -13.801
  -3.551        -13.797
  -3.549        -13.793
  -3.547        -13.789
  -3.545        -13.785
  -3.543        -13.781
  -3.540        -13.777
  -3.538        -13.773
  -3.536        -13.769
  -3.534        -13.765
  -3.532        -13.761
  -3.530        -13.757
  -3.528        -13.753
  -3.525        -13.749
  -3.523        -13.745
  -3.521        -13.741
  -3.519        -13.737
  -3.517        -13.733
  -3.514        -13.729
  -3.512        -13.725
  -3.510        -13.721
  -3.508        -13.717
  -3.506        -13.713
  -3.504        -13.709
  -3.502        -13.705
  -3.499        -13.701
  -3.497        -13.697
  -3.495        -13.693
  -3.493        -13.689
  -3.491        -13.685
  -3.488        -13.681
  -3.486        -13.678
  -3.484        -13.674
  -3.482        -13.670
  -3.480        -13.666
  -3.477        -13.662
  -3.475        -13.658
  -3.473        -13.654
  -3.471        -13.650
  -3.469        -13.646
  -3.467        -13.642
  -3.464        -13.638
  -3.462        -13.634
  -3.460        -13.630
  -3.458        -13.626
  -3.456        -13.623
  -3.454        -13.618
  -3.451        -13.615
  -3.449        -13.611
  -3.447        -13.607
  -3.445        -13.603
  -3.443        -13.599
  -3.441        -13.595
  -3.438        -13.591
  -3.436        -13.587
  -3.434        -13.583
  -3.432        -13.580
  -3.430        -13.576
  -3.428        -13.572
  -3.425        -13.568
  -3.423        -13.564
  -3.421        -13.560
  -3.419        -13.556
  -3.417        -13.552
  -3.415        -13.549
  -3.412        -13.545
  -3.410        -13.541
  -3.408        -13.537
  -3.406        -13.533
  -3.404        -13.529
  -3.402        -13.525
  -3.399        -13.522
  -3.397        -13.518
  -3.395        -13.514
  -3.393        -13.510
  -3.391        -13.506
  -3.389        -13.502
  -3.386        -13.498
  -3.384        -13.495
  -3.382        -13.491
  -3.380        -13.487
  -3.378        -13.483
  -3.376        -13.479
  -3.373        -13.476
  -3.371        -13.472
  -3.369        -13.468
  -3.367        -13.464
  -3.365        -13.460
  -3.362        -13.457
  -3.360        -13.453
  -3.358        -13.449
  -3.356        -13.445
  -3.354        -13.441
  -3.352        -13.437
  -3.349        -13.434
  -3.347        -13.430
  -3.345        -13.426
  -3.343        -13.422
  -3.341        -13.419
  -3.339        -13.415
  -3.336        -13.411
  -3.334        -13.407
  -3.332        -13.404
  -3.330        -13.400
  -3.328        -13.396
  -3.326        -13.392
  -3.323        -13.389
  -3.321        -13.385
  -3.319        -13.381
  -3.317        -13.377
  -3.315        -13.374
  -3.313        -13.370
  -3.310        -13.366
  -3.308        -13.362
  -3.306        -13.359
  -3.304        -13.355
  -3.302        -13.351
  -3.300        -13.347
  -3.297        -13.344
  -3.295        -13.340
  -3.293        -13.336
  -3.291        -13.333
  -3.289        -13.329
  -3.287        -13.325
  -3.284        -13.322
  -3.282        -13.318
  -3.280        -13.314
  -3.278        -13.310
  -3.276        -13.307
  -3.273        -13.303
  -3.271        -13.300
  -3.269        -13.296
  -3.267        -13.292
  -3.265        -13.289
  -3.263        -13.285
  -3.260        -13.281
  -3.258        -13.278
  -3.256        -13.274
  -3.254        -13.270
  -3.252        -13.267
  -3.250        -13.263
  -3.247        -13.259
  -3.245        -13.256
  -3.243        -13.252
  -3.241        -13.249
  -3.239        -13.245
  -3.237        -13.241
  -3.234        -13.238
  -3.232        -13.234
  -3.230        -13.231
  -3.228        -13.227
  -3.226        -13.223
  -3.224        -13.220
  -3.221        -13.216
  -3.219        -13.213
  -3.217        -13.209
  -3.215        -13.206
  -3.213        -13.202
  -3.211        -13.198
  -3.208        -13.195
  -3.206        -13.191
  -3.204        -13.188
  -3.202        -13.184
  -3.200        -13.181
  -3.197        -13.177
  -3.195        -13.173
  -3.193        -13.170
  -3.191        -13.166
  -3.189        -13.163
  -3.187        -13.160
  -3.184        -13.156
  -3.182        -13.152
  -3.180        -13.149
  -3.178        -13.145
  -3.176        -13.142
  -3.174        -13.139
  -3.171        -13.135
  -3.169        -13.132
  -3.167        -13.128
  -3.165        -13.125
  -3.163        -13.121
  -3.161        -13.118
  -3.158        -13.114
  -3.156        -13.111
  -3.154        -13.107
  -3.152        -13.104
  -3.150        -13.100
  -3.148        -13.097
  -3.145        -13.094
  -3.143        -13.090
  -3.141        -13.087
  -3.139        -13.083
  -3.137        -13.080
  -3.135        -13.077
  -3.132        -13.073
  -3.130        -13.070
  -3.128        -13.067
  -3.126        -13.063
  -3.124        -13.060
  -3.122        -13.056
  -3.119        -13.053
  -3.117        -13.050
  -3.115        -13.046
  -3.113        -13.043
  -3.111        -13.040
  -3.108        -13.036
  -3.106        -13.033
  -3.104        -13.030
  -3.102        -13.026
  -3.100        -13.023
  -3.098        -13.020
  -3.095        -13.017
  -3.093        -13.013
  -3.091        -13.010
  -3.089        -13.007
  -3.087        -13.004
  -3.085        -13.000
  -3.082        -12.997
  -3.080        -12.994
  -3.078        -12.990
  -3.076        -12.987
  -3.074        -12.984
  -3.072        -12.981
  -3.069        -12.978
  -3.067        -12.974
  -3.065        -12.971
  -3.063        -12.968
  -3.061        -12.965
  -3.059        -12.962
  -3.056        -12.958
  -3.054        -12.955
  -3.052        -12.952
  -3.050        -12.949
  -3.048        -12.946
  -3.046        -12.943
  -3.043        -12.940
  -3.041        -12.936
  -3.039        -12.933
  -3.037        -12.930
  -3.035        -12.927
  -3.032        -12.924
  -3.030        -12.921
  -3.028        -12.918
  -3.026        -12.915
  -3.024        -12.912
  -3.022        -12.908
  -3.019        -12.905
  -3.017        -12.902
  -3.015        -12.899
  -3.013        -12.896
  -3.011        -12.893
  -3.009        -12.890
  -3.006        -12.887
  -3.004        -12.884
  -3.002        -12.881
  -3.000        -12.878
  -2.998        -12.875
  -2.996        -12.872
  -2.993        -12.869
  -2.991        -12.866
  -2.989        -12.863
  -2.987        -12.860
  -2.985        -12.857
  -2.983        -12.855
  -2.980        -12.852
  -2.978        -12.849
  -2.976        -12.846
  -2.974        -12.843
  -2.972        -12.840
  -2.970        -12.837
  -2.967        -12.834
  -2.965        -12.831
  -2.963        -12.829
  -2.961        -12.826
  -2.959        -12.823
  -2.956        -12.820
  -2.954        -12.817
  -2.952        -12.814
  -2.950        -12.812
  -2.948        -12.809
  -2.946        -12.806
  -2.944        -12.803
  -2.941        -12.800
  -2.939        -12.798
  -2.937        -12.795
  -2.935        -12.792
  -2.933        -12.789
  -2.930        -12.787
  -2.928        -12.784
  -2.926        -12.781
  -2.924        -12.779
  -2.922        -12.776
  -2.920        -12.773
  -2.917        -12.771
  -2.915        -12.768
  -2.913        -12.765
  -2.911        -12.763
  -2.909        -12.760
  -2.907        -12.757
  -2.904        -12.755
  -2.902        -12.752
  -2.900        -12.750
  -2.898        -12.747
  -2.896        -12.745
  -2.894        -12.742
  -2.891        -12.739
  -2.889        -12.737
  -2.887        -12.734
  -2.885        -12.732
  -2.883        -12.729
  -2.880        -12.727
  -2.878        -12.724
  -2.876        -12.722
  -2.874        -12.719
  -2.872        -12.717
  -2.870        -12.714
  -2.867        -12.712
  -2.865        -12.710
  -2.863        -12.707
  -2.861        -12.705
  -2.859        -12.703
  -2.857        -12.700
  -2.855        -12.698
  -2.852        -12.696
  -2.850        -12.693
  -2.848        -12.691
  -2.846        -12.689
  -2.843        -12.686
  -2.842        -12.684
  -2.839        -12.682
  -2.837        -12.679
  -2.835        -12.677
  -2.833        -12.675
  -2.831        -12.673
  -2.828        -12.671
  -2.826        -12.669
  -2.824        -12.666
  -2.822        -12.664
  -2.820        -12.662
  -2.817        -12.660
  -2.815        -12.658
  -2.813        -12.655
  -2.811        -12.654
  -2.809        -12.651
  -2.807        -12.649
  -2.805        -12.647
  -2.802        -12.645
  -2.800        -12.643
  -2.798        -12.641
  -2.796        -12.639
  -2.794        -12.637
  -2.792        -12.635
  -2.789        -12.633
  -2.787        -12.631
  -2.785        -12.629
  -2.783        -12.627
  -2.781        -12.625
  -2.779        -12.624
  -2.776        -12.622
  -2.774        -12.620
  -2.772        -12.618
  -2.770        -12.616
  -2.767        -12.614
  -2.765        -12.612
  -2.763        -12.611
  -2.761        -12.609
  -2.759        -12.607
  -2.757        -12.605
  -2.754        -12.604
  -2.753        -12.602
  -2.750        -12.600
  -2.748        -12.599
  -2.746        -12.597
  -2.744        -12.595
  -2.741        -12.594
  -2.739        -12.592
  -2.737        -12.590
  -2.735        -12.589
  -2.733        -12.587
  -2.731        -12.586
  -2.729        -12.584
  -2.726        -12.583
  -2.724        -12.581
  -2.722        -12.580
  -2.720        -12.578
  -2.718        -12.577
  -2.716        -12.575
  -2.713        -12.574
  -2.711        -12.573
  -2.709        -12.571
  -2.707        -12.570
  -2.705        -12.568
  -2.703        -12.567
  -2.700        -12.566
  -2.698        -12.565
  -2.696        -12.563
  -2.694        -12.562
  -2.692        -12.561
  -2.689        -12.560
  -2.687        -12.558
  -2.685        -12.557
  -2.683        -12.556
  -2.681        -12.555
  -2.679        -12.554
  -2.677        -12.553
  -2.674        -12.552
  -2.672        -12.551
  -2.670        -12.550
  -2.668        -12.549
  -2.666        -12.548
  -2.663        -12.547
  -2.661        -12.546
  -2.659        -12.545
  -2.657        -12.544
  -2.655        -12.543
  -2.653        -12.542
  -2.650        -12.541
  -2.648        -12.541
  -2.646        -12.540
  -2.644        -12.539
  -2.642        -12.538
  -2.640        -12.538
  -2.637        -12.537
  -2.635        -12.536
  -2.633        -12.535
  -2.631        -12.535
  -2.629        -12.534
  -2.626        -12.534
  -2.624        -12.533
  -2.622        -12.533
  -2.620        -12.532
  -2.618        -12.532
  -2.616        -12.531
  -2.614        -12.530
  -2.611        -12.530
  -2.609        -12.530
  -2.607        -12.529
  -2.605        -12.529
  -2.603        -12.529
  -2.600        -12.528
  -2.598        -12.528
  -2.596        -12.528
  -2.594        -12.527
  -2.592        -12.527
  -2.590        -12.527
  -2.587        -12.527
  -2.585        -12.527
  -2.583        -12.527
  -2.581        -12.527
  -2.579        -12.527
  -2.577        -12.527
  -2.574        -12.527
  -2.572        -12.527
  -2.570        -12.527
  -2.568        -12.527
  -2.566        -12.527
  -2.564        -12.527
  -2.561        -12.527
  -2.559        -12.527
  -2.557        -12.527
  -2.555        -12.528
  -2.553        -12.528
  -2.551        -12.528
  -2.548        -12.529
  -2.546        -12.529
  -2.544        -12.529
  -2.542        -12.530
  -2.540        -12.530
  -2.538        -12.531
  -2.535        -12.531
  -2.533        -12.532
  -2.531        -12.532
  -2.529        -12.533
  -2.527        -12.534
  -2.525        -12.534
  -2.522        -12.535
  -2.520        -12.536
  -2.518        -12.536
  -2.516        -12.537
  -2.514        -12.538
  -2.511        -12.539
  -2.509        -12.540
  -2.507        -12.541
  -2.505        -12.542
  -2.503        -12.543
  -2.501        -12.543
  -2.498        -12.545
  -2.496        -12.546
  -2.494        -12.547
  -2.492        -12.548
  -2.490        -12.549
  -2.488        -12.550
  -2.485        -12.552
  -2.483        -12.553
  -2.481        -12.554
  -2.479        -12.556
  -2.477        -12.557
  -2.475        -12.558
  -2.472        -12.560
  -2.470        -12.561
  -2.468        -12.563
  -2.466        -12.564
  -2.464        -12.566
  -2.462        -12.568
  -2.459        -12.569
  -2.457        -12.571
  -2.455        -12.573
  -2.453        -12.575
  -2.451        -12.576
  -2.448        -12.578
  -2.446        -12.580
  -2.444        -12.582
  -2.442        -12.584
  -2.440        -12.586
  -2.438        -12.588
  -2.435        -12.590
  -2.433        -12.592
  -2.431        -12.595
  -2.429        -12.597
  -2.427        -12.599
  -2.425        -12.601
  -2.422        -12.604
  -2.420        -12.606
  -2.418        -12.608
  -2.416        -12.611
  -2.414        -12.613
  -2.412        -12.616
  -2.409        -12.619
  -2.407        -12.621
  -2.405        -12.624
  -2.403        -12.627
  -2.401        -12.629
  -2.398        -12.632
  -2.396        -12.635
  -2.394        -12.638
  -2.392        -12.641
  -2.390        -12.644
  -2.388        -12.647
  -2.386        -12.650
  -2.383        -12.653
  -2.381        -12.656
  -2.379        -12.659
  -2.377        -12.663
  -2.375        -12.666
  -2.372        -12.669
  -2.370        -12.673
  -2.368        -12.676
  -2.366        -12.680
  -2.364        -12.683
  -2.362        -12.687
  -2.359        -12.690
  -2.357        -12.694
  -2.355        -12.698
  -2.353        -12.701
  -2.351        -12.705
  -2.349        -12.709
  -2.346        -12.713
  -2.344        -12.717
  -2.342        -12.721
  -2.340        -12.725
  -2.338        -12.729
  -2.336        -12.733
  -2.333        -12.738
  -2.331        -12.742
  -2.329        -12.746
  -2.327        -12.751
  -2.325        -12.755
  -2.323        -12.760
  -2.320        -12.764
  -2.318        -12.769
  -2.316        -12.773
  -2.314        -12.778
  -2.312        -12.783
  -2.309        -12.788
  -2.307        -12.793
  -2.305        -12.798
  -2.303        -12.803
  -2.301        -12.808
  -2.299        -12.813
  -2.297        -12.818
  -2.294        -12.823
  -2.292        -12.828
  -2.290        -12.834
  -2.288        -12.839
  -2.286        -12.844
  -2.283        -12.850
  -2.281        -12.856
  -2.279        -12.861
  -2.277        -12.867
  -2.275        -12.873
  -2.273        -12.878
  -2.270        -12.884
  -2.268        -12.890
  -2.266        -12.896
  -2.264        -12.902
  -2.262        -12.908
  -2.260        -12.914
  -2.257        -12.920
  -2.255        -12.927
  -2.253        -12.933
  -2.251        -12.940
  -2.249        -12.946
  -2.247        -12.953
  -2.244        -12.959
  -2.242        -12.966
  -2.240        -12.973
  -2.238        -12.979
  -2.236        -12.986
  -2.234        -12.993
  -2.231        -13.000
  -2.229        -13.007
  -2.227        -13.015
  -2.225        -13.022
  -2.223        -13.029
  -2.220        -13.036
  -2.218        -13.044
  -2.216        -13.051
  -2.214        -13.059
  -2.212        -13.066
  -2.210        -13.074
  -2.207        -13.082
  -2.205        -13.090
  -2.203        -13.098
  -2.201        -13.106
  -2.199        -13.114
  -2.197        -13.122
  -2.194        -13.130
  -2.192        -13.138
  -2.190        -13.146
  -2.188        -13.155
  -2.186        -13.163
  -2.184        -13.172
  -2.181        -13.181
  -2.179        -13.189
  -2.177        -13.198
  -2.175        -13.207
  -2.173        -13.216
  -2.171        -13.225
  -2.168        -13.234
  -2.166        -13.243
  -2.164        -13.252
  -2.162        -13.262
  -2.160        -13.271
  -2.158        -13.281
  -2.155        -13.290
  -2.153        -13.300
  -2.151        -13.310
  -2.149        -13.319
  -2.147        -13.329
  -2.145        -13.339
  -2.142        -13.349
  -2.140        -13.359
  -2.138        -13.370
  -2.136        -13.380
  -2.134        -13.390
  -2.131        -13.401
  -2.129        -13.411
  -2.127        -13.422
  -2.125        -13.433
  -2.123        -13.444
  -2.121        -13.455
  -2.118        -13.465
  -2.116        -13.477
  -2.114        -13.488
  -2.112        -13.499
  -2.110        -13.510
  -2.108        -13.522
  -2.105        -13.533
  -2.103        -13.545
  -2.101        -13.557
  -2.099        -13.568
  -2.097        -13.580
  -2.095        -13.592
  -2.092        -13.604
  -2.090        -13.616
  -2.088        -13.629
  -2.086        -13.641
  -2.084        -13.653
  -2.082        -13.666
  -2.079        -13.679
  -2.077        -13.691
  -2.075        -13.704
  -2.073        -13.717
  -2.071        -13.730
  -2.069        -13.743
  -2.066        -13.756
  -2.064        -13.770
  -2.062        -13.783
  -2.060        -13.797
  -2.058        -13.810
  -2.056        -13.824
  -2.053        -13.838
  -2.051        -13.852
  -2.049        -13.866
  -2.047        -13.880
  -2.045        -13.894
  -2.043        -13.908
  -2.040        -13.923
  -2.038        -13.937
  -2.036        -13.952
  -2.034        -13.967
  -2.032        -13.982
  -2.029        -13.997
  -2.027        -14.012
  -2.025        -14.027
  -2.023        -14.042
  -2.021        -14.058
  -2.019        -14.073
  -2.016        -14.089
  -2.014        -14.104
  -2.012        -14.120
  -2.010        -14.136
  -2.008        -14.152
  -2.006        -14.168
  -2.003        -14.185
  -2.001        -14.201
  -1.999        -14.218
  -1.997        -14.234
  -1.995        -14.251
  -1.993        -14.268
  -1.990        -14.285
  -1.988        -14.302
  -1.986        -14.319
  -1.984        -14.337
  -1.982        -14.354
  -1.980        -14.372
  -1.977        -14.389
  -1.975        -14.407
  -1.973        -14.425
  -1.971        -14.443
  -1.969        -14.461
  -1.967        -14.480
  -1.964        -14.498
  -1.962        -14.517
  -1.960        -14.535
  -1.958        -14.554
  -1.956        -14.573
  -1.953        -14.592
  -1.951        -14.611
  -1.949        -14.630
