# log Energy    log Jnu
# (eV)          (ergs/s/cm2/Hz/Sr)
  -6.864        -20.500
  -6.820        -20.413
  -6.777        -20.326
  -6.734        -20.239
  -6.690        -20.153
  -6.647        -20.066
  -6.603        -19.979
  -6.560        -19.892
  -6.516        -19.805
  -6.473        -19.718
  -6.430        -19.631
  -6.386        -19.544
  -6.343        -19.458
  -6.299        -19.371
  -6.256        -19.284
  -6.212        -19.197
  -6.169        -19.110
  -6.126        -19.023
  -6.082        -18.937
  -6.039        -18.850
  -5.995        -18.763
  -5.952        -18.676
  -5.908        -18.589
  -5.865        -18.503
  -5.822        -18.416
  -5.778        -18.329
  -5.735        -18.242
  -5.691        -18.155
  -5.648        -18.068
  -5.605        -17.982
  -5.561        -17.895
  -5.518        -17.808
  -5.474        -17.721
  -5.431        -17.635
  -5.387        -17.548
  -5.344        -17.461
  -5.300        -17.375
  -5.257        -17.288
  -5.214        -17.201
  -5.170        -17.115
  -5.127        -17.028
  -5.083        -16.941
  -5.040        -16.855
  -4.996        -16.768
  -4.953        -16.682
  -4.910        -16.595
  -4.866        -16.509
  -4.823        -16.422
  -4.779        -16.336
  -4.736        -16.250
  -4.692        -16.164
  -4.649        -16.077
  -4.606        -15.991
  -4.562        -15.905
  -4.519        -15.819
  -4.475        -15.733
  -4.432        -15.648
  -4.388        -15.562
  -4.345        -15.477
  -4.302        -15.391
  -4.258        -15.306
  -4.215        -15.221
  -4.171        -15.137
  -4.128        -15.052
  -4.084        -14.968
  -4.041        -14.884
  -3.998        -14.800
  -3.954        -14.717
  -3.911        -14.634
  -3.867        -14.551
  -3.824        -14.469
  -3.781        -14.388
  -3.737        -14.307
  -3.693        -14.226
  -3.650        -14.147
  -3.607        -14.068
  -3.584        -14.031
  -3.582        -14.022
  -3.580        -14.020
  -3.577        -14.017
  -3.575        -14.013
  -3.573        -14.009
  -3.571        -14.005
  -3.569        -14.001
  -3.567        -13.997
  -3.564        -13.993
  -3.562        -13.990
  -3.560        -13.986
  -3.558        -13.982
  -3.556        -13.978
  -3.554        -13.974
  -3.551        -13.970
  -3.549        -13.966
  -3.547        -13.963
  -3.545        -13.959
  -3.543        -13.955
  -3.540        -13.951
  -3.538        -13.947
  -3.536        -13.943
  -3.534        -13.940
  -3.532        -13.936
  -3.530        -13.932
  -3.528        -13.928
  -3.525        -13.924
  -3.523        -13.920
  -3.521        -13.917
  -3.519        -13.913
  -3.517        -13.909
  -3.514        -13.905
  -3.512        -13.902
  -3.510        -13.897
  -3.508        -13.894
  -3.506        -13.890
  -3.504        -13.886
  -3.502        -13.882
  -3.499        -13.879
  -3.497        -13.875
  -3.495        -13.871
  -3.493        -13.867
  -3.491        -13.863
  -3.488        -13.860
  -3.486        -13.856
  -3.484        -13.852
  -3.482        -13.848
  -3.480        -13.845
  -3.477        -13.841
  -3.475        -13.837
  -3.473        -13.833
  -3.471        -13.829
  -3.469        -13.826
  -3.467        -13.822
  -3.464        -13.818
  -3.462        -13.815
  -3.460        -13.811
  -3.458        -13.807
  -3.456        -13.803
  -3.454        -13.800
  -3.451        -13.796
  -3.449        -13.792
  -3.447        -13.788
  -3.445        -13.785
  -3.443        -13.781
  -3.441        -13.777
  -3.438        -13.774
  -3.436        -13.770
  -3.434        -13.766
  -3.432        -13.762
  -3.430        -13.759
  -3.428        -13.755
  -3.425        -13.751
  -3.423        -13.748
  -3.421        -13.744
  -3.419        -13.741
  -3.417        -13.737
  -3.415        -13.733
  -3.412        -13.729
  -3.410        -13.726
  -3.408        -13.722
  -3.406        -13.718
  -3.404        -13.715
  -3.402        -13.711
  -3.399        -13.708
  -3.397        -13.704
  -3.395        -13.700
  -3.393        -13.697
  -3.391        -13.693
  -3.389        -13.689
  -3.386        -13.686
  -3.384        -13.682
  -3.382        -13.679
  -3.380        -13.675
  -3.378        -13.671
  -3.376        -13.668
  -3.373        -13.664
  -3.371        -13.661
  -3.369        -13.657
  -3.367        -13.653
  -3.365        -13.650
  -3.362        -13.646
  -3.360        -13.643
  -3.358        -13.639
  -3.356        -13.636
  -3.354        -13.632
  -3.352        -13.628
  -3.349        -13.625
  -3.347        -13.621
  -3.345        -13.618
  -3.343        -13.614
  -3.341        -13.611
  -3.339        -13.607
  -3.336        -13.604
  -3.334        -13.600
  -3.332        -13.597
  -3.330        -13.593
  -3.328        -13.590
  -3.326        -13.586
  -3.323        -13.583
  -3.321        -13.579
  -3.319        -13.576
  -3.317        -13.572
  -3.315        -13.569
  -3.313        -13.565
  -3.310        -13.562
  -3.308        -13.558
  -3.306        -13.555
  -3.304        -13.552
  -3.302        -13.548
  -3.300        -13.545
  -3.297        -13.541
  -3.295        -13.538
  -3.293        -13.534
  -3.291        -13.531
  -3.289        -13.528
  -3.287        -13.524
  -3.284        -13.521
  -3.282        -13.517
  -3.280        -13.514
  -3.278        -13.511
  -3.276        -13.507
  -3.273        -13.504
  -3.271        -13.501
  -3.269        -13.497
  -3.267        -13.494
  -3.265        -13.491
  -3.263        -13.487
  -3.260        -13.484
  -3.258        -13.480
  -3.256        -13.477
  -3.254        -13.474
  -3.252        -13.470
  -3.250        -13.467
  -3.247        -13.464
  -3.245        -13.461
  -3.243        -13.457
  -3.241        -13.454
  -3.239        -13.451
  -3.237        -13.447
  -3.234        -13.444
  -3.232        -13.441
  -3.230        -13.438
  -3.228        -13.434
  -3.226        -13.431
  -3.224        -13.428
  -3.221        -13.425
  -3.219        -13.421
  -3.217        -13.418
  -3.215        -13.415
  -3.213        -13.412
  -3.211        -13.409
  -3.208        -13.405
  -3.206        -13.402
  -3.204        -13.399
  -3.202        -13.396
  -3.200        -13.393
  -3.197        -13.390
  -3.195        -13.386
  -3.193        -13.383
  -3.191        -13.380
  -3.189        -13.377
  -3.187        -13.374
  -3.184        -13.371
  -3.182        -13.368
  -3.180        -13.364
  -3.178        -13.361
  -3.176        -13.358
  -3.174        -13.355
  -3.171        -13.352
  -3.169        -13.349
  -3.167        -13.346
  -3.165        -13.343
  -3.163        -13.340
  -3.161        -13.337
  -3.158        -13.334
  -3.156        -13.331
  -3.154        -13.328
  -3.152        -13.325
  -3.150        -13.322
  -3.148        -13.318
  -3.145        -13.316
  -3.143        -13.312
  -3.141        -13.310
  -3.139        -13.307
  -3.137        -13.304
  -3.135        -13.301
  -3.132        -13.298
  -3.130        -13.295
  -3.128        -13.292
  -3.126        -13.289
  -3.124        -13.286
  -3.122        -13.283
  -3.119        -13.281
  -3.117        -13.277
  -3.115        -13.275
  -3.113        -13.272
  -3.111        -13.269
  -3.108        -13.266
  -3.106        -13.263
  -3.104        -13.260
  -3.102        -13.258
  -3.100        -13.255
  -3.098        -13.252
  -3.095        -13.249
  -3.093        -13.246
  -3.091        -13.244
  -3.089        -13.241
  -3.087        -13.238
  -3.085        -13.235
  -3.082        -13.233
  -3.080        -13.230
  -3.078        -13.227
  -3.076        -13.224
  -3.074        -13.222
  -3.072        -13.219
  -3.069        -13.216
  -3.067        -13.213
  -3.065        -13.211
  -3.063        -13.208
  -3.061        -13.206
  -3.059        -13.203
  -3.056        -13.200
  -3.054        -13.198
  -3.052        -13.195
  -3.050        -13.193
  -3.048        -13.190
  -3.046        -13.187
  -3.043        -13.185
  -3.041        -13.182
  -3.039        -13.180
  -3.037        -13.177
  -3.035        -13.175
  -3.032        -13.172
  -3.030        -13.170
  -3.028        -13.167
  -3.026        -13.164
  -3.024        -13.162
  -3.022        -13.160
  -3.019        -13.157
  -3.017        -13.155
  -3.015        -13.152
  -3.013        -13.150
  -3.011        -13.147
  -3.009        -13.145
  -3.006        -13.143
  -3.004        -13.140
  -3.002        -13.138
  -3.000        -13.136
  -2.998        -13.133
  -2.996        -13.131
  -2.993        -13.129
  -2.991        -13.126
  -2.989        -13.124
  -2.987        -13.122
  -2.985        -13.119
  -2.983        -13.117
  -2.980        -13.115
  -2.978        -13.113
  -2.976        -13.110
  -2.974        -13.108
  -2.972        -13.106
  -2.970        -13.104
  -2.967        -13.102
  -2.965        -13.100
  -2.963        -13.098
  -2.961        -13.095
  -2.959        -13.093
  -2.956        -13.091
  -2.954        -13.089
  -2.952        -13.087
  -2.950        -13.085
  -2.948        -13.083
  -2.946        -13.081
  -2.944        -13.079
  -2.941        -13.077
  -2.939        -13.075
  -2.937        -13.073
  -2.935        -13.071
  -2.933        -13.069
  -2.930        -13.067
  -2.928        -13.065
  -2.926        -13.063
  -2.924        -13.061
  -2.922        -13.059
  -2.920        -13.058
  -2.917        -13.056
  -2.915        -13.054
  -2.913        -13.052
  -2.911        -13.050
  -2.909        -13.048
  -2.907        -13.047
  -2.904        -13.045
  -2.902        -13.043
  -2.900        -13.042
  -2.898        -13.040
  -2.896        -13.038
  -2.894        -13.036
  -2.891        -13.035
  -2.889        -13.033
  -2.887        -13.032
  -2.885        -13.030
  -2.883        -13.028
  -2.880        -13.027
  -2.878        -13.025
  -2.876        -13.024
  -2.874        -13.022
  -2.872        -13.021
  -2.870        -13.019
  -2.867        -13.018
  -2.865        -13.016
  -2.863        -13.015
  -2.861        -13.013
  -2.859        -13.012
  -2.857        -13.011
  -2.855        -13.009
  -2.852        -13.008
  -2.850        -13.006
  -2.848        -13.005
  -2.846        -13.004
  -2.843        -13.003
  -2.842        -13.001
  -2.839        -13.000
  -2.837        -12.999
  -2.835        -12.998
  -2.833        -12.997
  -2.831        -12.995
  -2.828        -12.994
  -2.826        -12.993
  -2.824        -12.992
  -2.822        -12.991
  -2.820        -12.990
  -2.817        -12.989
  -2.815        -12.988
  -2.813        -12.987
  -2.811        -12.986
  -2.809        -12.985
  -2.807        -12.984
  -2.805        -12.983
  -2.802        -12.982
  -2.800        -12.981
  -2.798        -12.981
  -2.796        -12.980
  -2.794        -12.979
  -2.792        -12.978
  -2.789        -12.977
  -2.787        -12.977
  -2.785        -12.976
  -2.783        -12.975
  -2.781        -12.974
  -2.779        -12.974
  -2.776        -12.973
  -2.774        -12.972
  -2.772        -12.972
  -2.770        -12.971
  -2.767        -12.971
  -2.765        -12.970
  -2.763        -12.970
  -2.761        -12.969
  -2.759        -12.969
  -2.757        -12.968
  -2.754        -12.968
  -2.753        -12.967
  -2.750        -12.967
  -2.748        -12.967
  -2.746        -12.967
  -2.744        -12.966
  -2.741        -12.966
  -2.739        -12.966
  -2.737        -12.966
  -2.735        -12.965
  -2.733        -12.965
  -2.731        -12.965
  -2.729        -12.965
  -2.726        -12.965
  -2.724        -12.965
  -2.722        -12.965
  -2.720        -12.965
  -2.718        -12.965
  -2.716        -12.965
  -2.713        -12.965
  -2.711        -12.965
  -2.709        -12.965
  -2.707        -12.966
  -2.705        -12.966
  -2.703        -12.966
  -2.700        -12.966
  -2.698        -12.966
  -2.696        -12.967
  -2.694        -12.967
  -2.692        -12.968
  -2.689        -12.968
  -2.687        -12.968
  -2.685        -12.969
  -2.683        -12.969
  -2.681        -12.970
  -2.679        -12.970
  -2.677        -12.971
  -2.674        -12.972
  -2.672        -12.972
  -2.670        -12.973
  -2.668        -12.974
  -2.666        -12.974
  -2.663        -12.975
  -2.661        -12.976
  -2.659        -12.977
  -2.657        -12.978
  -2.655        -12.978
  -2.653        -12.979
  -2.650        -12.980
  -2.648        -12.981
  -2.646        -12.982
  -2.644        -12.983
  -2.642        -12.984
  -2.640        -12.986
  -2.637        -12.987
  -2.635        -12.988
  -2.633        -12.989
  -2.631        -12.990
  -2.629        -12.992
  -2.626        -12.993
  -2.624        -12.994
  -2.622        -12.996
  -2.620        -12.997
  -2.618        -12.999
  -2.616        -13.000
  -2.614        -13.002
  -2.611        -13.003
  -2.609        -13.005
  -2.607        -13.006
  -2.605        -13.008
  -2.603        -13.010
  -2.600        -13.012
  -2.598        -13.013
  -2.596        -13.015
  -2.594        -13.017
  -2.592        -13.019
  -2.590        -13.021
  -2.587        -13.023
  -2.585        -13.025
  -2.583        -13.027
  -2.581        -13.029
  -2.579        -13.031
  -2.577        -13.034
  -2.574        -13.036
  -2.572        -13.038
  -2.570        -13.040
  -2.568        -13.043
  -2.566        -13.045
  -2.564        -13.047
  -2.561        -13.050
  -2.559        -13.053
  -2.557        -13.055
  -2.555        -13.058
  -2.553        -13.060
  -2.551        -13.063
  -2.548        -13.066
  -2.546        -13.069
  -2.544        -13.071
  -2.542        -13.074
  -2.540        -13.077
  -2.538        -13.080
  -2.535        -13.083
  -2.533        -13.086
  -2.531        -13.089
  -2.529        -13.092
  -2.527        -13.096
  -2.525        -13.099
  -2.522        -13.102
  -2.520        -13.105
  -2.518        -13.109
  -2.516        -13.112
  -2.514        -13.115
  -2.511        -13.119
  -2.509        -13.123
  -2.507        -13.126
  -2.505        -13.130
  -2.503        -13.133
  -2.501        -13.137
  -2.498        -13.141
  -2.496        -13.145
  -2.494        -13.149
  -2.492        -13.153
  -2.490        -13.157
  -2.488        -13.161
  -2.485        -13.165
  -2.483        -13.169
  -2.481        -13.173
  -2.479        -13.177
  -2.477        -13.182
  -2.475        -13.186
  -2.472        -13.190
  -2.470        -13.195
  -2.468        -13.199
  -2.466        -13.204
  -2.464        -13.209
  -2.462        -13.213
  -2.459        -13.218
  -2.457        -13.223
  -2.455        -13.228
  -2.453        -13.233
  -2.451        -13.237
  -2.448        -13.242
  -2.446        -13.248
  -2.444        -13.253
  -2.442        -13.258
  -2.440        -13.263
  -2.438        -13.268
  -2.435        -13.274
  -2.433        -13.279
  -2.431        -13.285
  -2.429        -13.290
  -2.427        -13.296
  -2.425        -13.301
  -2.422        -13.307
  -2.420        -13.313
  -2.418        -13.318
  -2.416        -13.324
  -2.414        -13.330
  -2.412        -13.336
  -2.409        -13.342
  -2.407        -13.348
  -2.405        -13.355
  -2.403        -13.361
  -2.401        -13.367
  -2.398        -13.374
  -2.396        -13.380
  -2.394        -13.387
  -2.392        -13.393
  -2.390        -13.400
  -2.388        -13.406
  -2.386        -13.413
  -2.383        -13.420
  -2.381        -13.427
  -2.379        -13.434
  -2.377        -13.441
  -2.375        -13.448
  -2.372        -13.455
  -2.370        -13.462
  -2.368        -13.470
  -2.366        -13.477
  -2.364        -13.485
  -2.362        -13.492
  -2.359        -13.500
  -2.357        -13.507
  -2.355        -13.515
  -2.353        -13.523
  -2.351        -13.530
  -2.349        -13.538
  -2.346        -13.546
  -2.344        -13.555
  -2.342        -13.563
  -2.340        -13.571
  -2.338        -13.579
  -2.336        -13.588
  -2.333        -13.596
  -2.331        -13.604
  -2.329        -13.613
  -2.327        -13.622
  -2.325        -13.630
  -2.323        -13.639
  -2.320        -13.648
  -2.318        -13.657
  -2.316        -13.666
  -2.314        -13.675
  -2.312        -13.684
  -2.309        -13.694
  -2.307        -13.703
  -2.305        -13.713
  -2.303        -13.722
  -2.301        -13.732
  -2.299        -13.741
  -2.297        -13.751
  -2.294        -13.761
  -2.292        -13.771
  -2.290        -13.781
  -2.288        -13.791
  -2.286        -13.801
  -2.283        -13.811
  -2.281        -13.822
  -2.279        -13.832
  -2.277        -13.842
  -2.275        -13.853
  -2.273        -13.864
  -2.270        -13.875
  -2.268        -13.885
  -2.266        -13.896
  -2.264        -13.907
  -2.262        -13.918
  -2.260        -13.929
  -2.257        -13.941
  -2.255        -13.952
  -2.253        -13.964
  -2.251        -13.975
  -2.249        -13.987
  -2.247        -13.999
  -2.244        -14.010
  -2.242        -14.022
  -2.240        -14.034
  -2.238        -14.046
  -2.236        -14.059
  -2.234        -14.071
  -2.231        -14.083
  -2.229        -14.096
  -2.227        -14.108
  -2.225        -14.121
  -2.223        -14.133
  -2.220        -14.147
  -2.218        -14.160
  -2.216        -14.172
  -2.214        -14.186
  -2.212        -14.199
  -2.210        -14.212
  -2.207        -14.226
  -2.205        -14.239
  -2.203        -14.253
  -2.201        -14.267
  -2.199        -14.280
  -2.197        -14.294
  -2.194        -14.308
  -2.192        -14.323
  -2.190        -14.337
  -2.188        -14.351
  -2.186        -14.366
  -2.184        -14.380
  -2.181        -14.395
  -2.179        -14.410
  -2.177        -14.425
  -2.175        -14.440
  -2.173        -14.455
  -2.171        -14.470
  -2.168        -14.485
  -2.166        -14.501
  -2.164        -14.516
  -2.162        -14.532
  -2.160        -14.548
  -2.158        -14.563
  -2.155        -14.579
  -2.153        -14.596
  -2.151        -14.612
  -2.149        -14.628
  -2.147        -14.645
  -2.145        -14.661
  -2.142        -14.678
  -2.140        -14.694
  -2.138        -14.711
  -2.136        -14.728
  -2.134        -14.745
  -2.131        -14.763
  -2.129        -14.780
  -2.127        -14.798
  -2.125        -14.815
  -2.123        -14.833
  -2.121        -14.851
  -2.118        -14.869
  -2.116        -14.887
  -2.114        -14.905
  -2.112        -14.924
  -2.110        -14.942
  -2.108        -14.961
  -2.105        -14.979
  -2.103        -14.998
  -2.101        -15.017
  -2.099        -15.036
  -2.097        -15.055
  -2.095        -15.075
  -2.092        -15.094
  -2.090        -15.114
  -2.088        -15.134
  -2.086        -15.153
  -2.084        -15.174
  -2.082        -15.194
  -2.079        -15.214
  -2.077        -15.234
  -2.075        -15.255
  -2.073        -15.276
  -2.071        -15.296
  -2.069        -15.318
  -2.066        -15.339
  -2.064        -15.360
  -2.062        -15.381
  -2.060        -15.402
  -2.058        -15.424
  -2.056        -15.446
  -2.053        -15.468
  -2.051        -15.490
  -2.049        -15.512
  -2.047        -15.535
  -2.045        -15.557
  -2.043        -15.580
  -2.040        -15.603
  -2.038        -15.625
  -2.036        -15.649
  -2.034        -15.672
  -2.032        -15.695
  -2.029        -15.719
  -2.027        -15.742
  -2.025        -15.766
  -2.023        -15.790
  -2.021        -15.814
  -2.019        -15.839
  -2.016        -15.863
  -2.014        -15.888
  -2.012        -15.912
  -2.010        -15.937
  -2.008        -15.962
  -2.006        -15.987
  -2.003        -16.013
  -2.001        -16.038
  -1.999        -16.064
  -1.997        -16.090
  -1.995        -16.116
  -1.993        -16.142
  -1.990        -16.168
  -1.988        -16.195
  -1.986        -16.221
  -1.984        -16.248
  -1.982        -16.275
  -1.980        -16.302
  -1.977        -16.329
  -1.975        -16.357
  -1.973        -16.384
  -1.971        -16.412
  -1.969        -16.440
  -1.967        -16.468
  -1.964        -16.496
  -1.962        -16.525
  -1.960        -16.553
  -1.958        -16.582
  -1.956        -16.611
  -1.953        -16.640
  -1.951        -16.669
  -1.949        -16.698
