# log Energy    log Jnu
# (eV)          (ergs/s/cm2/Hz/Sr)
  -6.864        -20.562
  -6.820        -20.475
  -6.777        -20.388
  -6.734        -20.301
  -6.690        -20.215
  -6.647        -20.128
  -6.603        -20.041
  -6.560        -19.954
  -6.516        -19.867
  -6.473        -19.780
  -6.430        -19.694
  -6.386        -19.607
  -6.343        -19.520
  -6.299        -19.433
  -6.256        -19.346
  -6.212        -19.259
  -6.169        -19.172
  -6.126        -19.086
  -6.082        -18.999
  -6.039        -18.912
  -5.995        -18.825
  -5.952        -18.738
  -5.908        -18.652
  -5.865        -18.565
  -5.822        -18.478
  -5.778        -18.391
  -5.735        -18.304
  -5.691        -18.218
  -5.648        -18.131
  -5.605        -18.044
  -5.561        -17.957
  -5.518        -17.871
  -5.474        -17.784
  -5.431        -17.697
  -5.387        -17.610
  -5.344        -17.524
  -5.300        -17.437
  -5.257        -17.350
  -5.214        -17.263
  -5.170        -17.177
  -5.127        -17.090
  -5.083        -17.004
  -5.040        -16.917
  -4.996        -16.831
  -4.953        -16.744
  -4.910        -16.658
  -4.866        -16.572
  -4.823        -16.485
  -4.779        -16.399
  -4.736        -16.313
  -4.692        -16.227
  -4.649        -16.141
  -4.606        -16.055
  -4.562        -15.969
  -4.519        -15.883
  -4.475        -15.797
  -4.432        -15.712
  -4.388        -15.626
  -4.345        -15.541
  -4.302        -15.456
  -4.258        -15.371
  -4.215        -15.287
  -4.171        -15.202
  -4.128        -15.118
  -4.084        -15.034
  -4.041        -14.951
  -3.998        -14.867
  -3.954        -14.785
  -3.911        -14.702
  -3.867        -14.620
  -3.824        -14.539
  -3.781        -14.458
  -3.737        -14.378
  -3.693        -14.299
  -3.650        -14.221
  -3.607        -14.144
  -3.584        -14.107
  -3.582        -14.098
  -3.580        -14.096
  -3.577        -14.093
  -3.575        -14.089
  -3.573        -14.085
  -3.571        -14.082
  -3.569        -14.078
  -3.567        -14.074
  -3.564        -14.070
  -3.562        -14.066
  -3.560        -14.063
  -3.558        -14.059
  -3.556        -14.055
  -3.554        -14.051
  -3.551        -14.047
  -3.549        -14.044
  -3.547        -14.040
  -3.545        -14.036
  -3.543        -14.032
  -3.540        -14.029
  -3.538        -14.025
  -3.536        -14.021
  -3.534        -14.017
  -3.532        -14.014
  -3.530        -14.010
  -3.528        -14.006
  -3.525        -14.002
  -3.523        -13.999
  -3.521        -13.995
  -3.519        -13.991
  -3.517        -13.987
  -3.514        -13.984
  -3.512        -13.980
  -3.510        -13.976
  -3.508        -13.972
  -3.506        -13.969
  -3.504        -13.965
  -3.502        -13.961
  -3.499        -13.958
  -3.497        -13.954
  -3.495        -13.950
  -3.493        -13.946
  -3.491        -13.943
  -3.488        -13.939
  -3.486        -13.936
  -3.484        -13.932
  -3.482        -13.928
  -3.480        -13.925
  -3.477        -13.921
  -3.475        -13.917
  -3.473        -13.914
  -3.471        -13.910
  -3.469        -13.906
  -3.467        -13.903
  -3.464        -13.899
  -3.462        -13.896
  -3.460        -13.892
  -3.458        -13.888
  -3.456        -13.884
  -3.454        -13.881
  -3.451        -13.877
  -3.449        -13.874
  -3.447        -13.870
  -3.445        -13.866
  -3.443        -13.863
  -3.441        -13.859
  -3.438        -13.856
  -3.436        -13.852
  -3.434        -13.849
  -3.432        -13.845
  -3.430        -13.841
  -3.428        -13.838
  -3.425        -13.834
  -3.423        -13.831
  -3.421        -13.827
  -3.419        -13.823
  -3.417        -13.820
  -3.415        -13.816
  -3.412        -13.813
  -3.410        -13.809
  -3.408        -13.806
  -3.406        -13.802
  -3.404        -13.799
  -3.402        -13.795
  -3.399        -13.792
  -3.397        -13.788
  -3.395        -13.785
  -3.393        -13.781
  -3.391        -13.778
  -3.389        -13.774
  -3.386        -13.771
  -3.384        -13.767
  -3.382        -13.764
  -3.380        -13.760
  -3.378        -13.757
  -3.376        -13.753
  -3.373        -13.750
  -3.371        -13.746
  -3.369        -13.743
  -3.367        -13.739
  -3.365        -13.736
  -3.362        -13.732
  -3.360        -13.729
  -3.358        -13.726
  -3.356        -13.722
  -3.354        -13.719
  -3.352        -13.715
  -3.349        -13.712
  -3.347        -13.708
  -3.345        -13.705
  -3.343        -13.702
  -3.341        -13.698
  -3.339        -13.695
  -3.336        -13.692
  -3.334        -13.688
  -3.332        -13.685
  -3.330        -13.681
  -3.328        -13.678
  -3.326        -13.675
  -3.323        -13.671
  -3.321        -13.668
  -3.319        -13.665
  -3.317        -13.661
  -3.315        -13.658
  -3.313        -13.655
  -3.310        -13.652
  -3.308        -13.648
  -3.306        -13.645
  -3.304        -13.642
  -3.302        -13.638
  -3.300        -13.635
  -3.297        -13.632
  -3.295        -13.629
  -3.293        -13.625
  -3.291        -13.622
  -3.289        -13.619
  -3.287        -13.616
  -3.284        -13.612
  -3.282        -13.609
  -3.280        -13.606
  -3.278        -13.603
  -3.276        -13.599
  -3.273        -13.596
  -3.271        -13.593
  -3.269        -13.590
  -3.267        -13.587
  -3.265        -13.584
  -3.263        -13.580
  -3.260        -13.577
  -3.258        -13.574
  -3.256        -13.571
  -3.254        -13.568
  -3.252        -13.564
  -3.250        -13.561
  -3.247        -13.558
  -3.245        -13.555
  -3.243        -13.552
  -3.241        -13.549
  -3.239        -13.546
  -3.237        -13.543
  -3.234        -13.540
  -3.232        -13.537
  -3.230        -13.534
  -3.228        -13.530
  -3.226        -13.527
  -3.224        -13.524
  -3.221        -13.521
  -3.219        -13.518
  -3.217        -13.515
  -3.215        -13.512
  -3.213        -13.509
  -3.211        -13.506
  -3.208        -13.503
  -3.206        -13.500
  -3.204        -13.497
  -3.202        -13.494
  -3.200        -13.491
  -3.197        -13.488
  -3.195        -13.485
  -3.193        -13.482
  -3.191        -13.480
  -3.189        -13.477
  -3.187        -13.474
  -3.184        -13.471
  -3.182        -13.468
  -3.180        -13.465
  -3.178        -13.462
  -3.176        -13.459
  -3.174        -13.456
  -3.171        -13.453
  -3.169        -13.451
  -3.167        -13.448
  -3.165        -13.445
  -3.163        -13.442
  -3.161        -13.439
  -3.158        -13.437
  -3.156        -13.434
  -3.154        -13.431
  -3.152        -13.428
  -3.150        -13.425
  -3.148        -13.423
  -3.145        -13.420
  -3.143        -13.417
  -3.141        -13.414
  -3.139        -13.412
  -3.137        -13.409
  -3.135        -13.406
  -3.132        -13.404
  -3.130        -13.401
  -3.128        -13.398
  -3.126        -13.396
  -3.124        -13.393
  -3.122        -13.390
  -3.119        -13.388
  -3.117        -13.385
  -3.115        -13.382
  -3.113        -13.380
  -3.111        -13.377
  -3.108        -13.375
  -3.106        -13.372
  -3.104        -13.369
  -3.102        -13.367
  -3.100        -13.365
  -3.098        -13.362
  -3.095        -13.359
  -3.093        -13.357
  -3.091        -13.355
  -3.089        -13.352
  -3.087        -13.349
  -3.085        -13.347
  -3.082        -13.345
  -3.080        -13.342
  -3.078        -13.340
  -3.076        -13.337
  -3.074        -13.335
  -3.072        -13.332
  -3.069        -13.330
  -3.067        -13.328
  -3.065        -13.325
  -3.063        -13.323
  -3.061        -13.321
  -3.059        -13.318
  -3.056        -13.316
  -3.054        -13.314
  -3.052        -13.311
  -3.050        -13.309
  -3.048        -13.307
  -3.046        -13.305
  -3.043        -13.302
  -3.041        -13.300
  -3.039        -13.298
  -3.037        -13.296
  -3.035        -13.293
  -3.032        -13.291
  -3.030        -13.289
  -3.028        -13.287
  -3.026        -13.285
  -3.024        -13.282
  -3.022        -13.281
  -3.019        -13.278
  -3.017        -13.276
  -3.015        -13.274
  -3.013        -13.272
  -3.011        -13.270
  -3.009        -13.268
  -3.006        -13.266
  -3.004        -13.264
  -3.002        -13.262
  -3.000        -13.260
  -2.998        -13.258
  -2.996        -13.256
  -2.993        -13.254
  -2.991        -13.252
  -2.989        -13.250
  -2.987        -13.249
  -2.985        -13.247
  -2.983        -13.245
  -2.980        -13.243
  -2.978        -13.241
  -2.976        -13.239
  -2.974        -13.237
  -2.972        -13.236
  -2.970        -13.234
  -2.967        -13.232
  -2.965        -13.230
  -2.963        -13.229
  -2.961        -13.227
  -2.959        -13.225
  -2.956        -13.224
  -2.954        -13.222
  -2.952        -13.220
  -2.950        -13.219
  -2.948        -13.217
  -2.946        -13.215
  -2.944        -13.214
  -2.941        -13.212
  -2.939        -13.211
  -2.937        -13.209
  -2.935        -13.208
  -2.933        -13.206
  -2.930        -13.205
  -2.928        -13.203
  -2.926        -13.202
  -2.924        -13.200
  -2.922        -13.199
  -2.920        -13.198
  -2.917        -13.196
  -2.915        -13.195
  -2.913        -13.194
  -2.911        -13.192
  -2.909        -13.191
  -2.907        -13.190
  -2.904        -13.188
  -2.902        -13.187
  -2.900        -13.186
  -2.898        -13.185
  -2.896        -13.183
  -2.894        -13.182
  -2.891        -13.181
  -2.889        -13.180
  -2.887        -13.179
  -2.885        -13.178
  -2.883        -13.177
  -2.880        -13.176
  -2.878        -13.175
  -2.876        -13.174
  -2.874        -13.173
  -2.872        -13.172
  -2.870        -13.170
  -2.867        -13.170
  -2.865        -13.169
  -2.863        -13.168
  -2.861        -13.167
  -2.859        -13.166
  -2.857        -13.165
  -2.855        -13.164
  -2.852        -13.164
  -2.850        -13.163
  -2.848        -13.163
  -2.846        -13.162
  -2.843        -13.161
  -2.842        -13.160
  -2.839        -13.160
  -2.837        -13.159
  -2.835        -13.159
  -2.833        -13.158
  -2.831        -13.157
  -2.828        -13.157
  -2.826        -13.156
  -2.824        -13.156
  -2.822        -13.155
  -2.820        -13.155
  -2.817        -13.155
  -2.815        -13.154
  -2.813        -13.154
  -2.811        -13.154
  -2.809        -13.153
  -2.807        -13.153
  -2.805        -13.152
  -2.802        -13.152
  -2.800        -13.152
  -2.798        -13.152
  -2.796        -13.152
  -2.794        -13.152
  -2.792        -13.152
  -2.789        -13.151
  -2.787        -13.152
  -2.785        -13.151
  -2.783        -13.151
  -2.781        -13.152
  -2.779        -13.151
  -2.776        -13.152
  -2.774        -13.152
  -2.772        -13.152
  -2.770        -13.152
  -2.767        -13.152
  -2.765        -13.152
  -2.763        -13.153
  -2.761        -13.153
  -2.759        -13.153
  -2.757        -13.154
  -2.754        -13.154
  -2.753        -13.154
  -2.750        -13.155
  -2.748        -13.155
  -2.746        -13.156
  -2.744        -13.156
  -2.741        -13.157
  -2.739        -13.157
  -2.737        -13.158
  -2.735        -13.158
  -2.733        -13.159
  -2.731        -13.160
  -2.729        -13.160
  -2.726        -13.161
  -2.724        -13.162
  -2.722        -13.163
  -2.720        -13.164
  -2.718        -13.165
  -2.716        -13.165
  -2.713        -13.166
  -2.711        -13.167
  -2.709        -13.168
  -2.707        -13.169
  -2.705        -13.170
  -2.703        -13.172
  -2.700        -13.173
  -2.698        -13.174
  -2.696        -13.175
  -2.694        -13.176
  -2.692        -13.178
  -2.689        -13.179
  -2.687        -13.180
  -2.685        -13.182
  -2.683        -13.183
  -2.681        -13.184
  -2.679        -13.186
  -2.677        -13.187
  -2.674        -13.189
  -2.672        -13.191
  -2.670        -13.192
  -2.668        -13.194
  -2.666        -13.196
  -2.663        -13.198
  -2.661        -13.199
  -2.659        -13.201
  -2.657        -13.203
  -2.655        -13.205
  -2.653        -13.207
  -2.650        -13.209
  -2.648        -13.211
  -2.646        -13.213
  -2.644        -13.215
  -2.642        -13.217
  -2.640        -13.219
  -2.637        -13.221
  -2.635        -13.224
  -2.633        -13.226
  -2.631        -13.228
  -2.629        -13.231
  -2.626        -13.233
  -2.624        -13.236
  -2.622        -13.238
  -2.620        -13.240
  -2.618        -13.243
  -2.616        -13.246
  -2.614        -13.248
  -2.611        -13.251
  -2.609        -13.254
  -2.607        -13.257
  -2.605        -13.260
  -2.603        -13.263
  -2.600        -13.265
  -2.598        -13.268
  -2.596        -13.272
  -2.594        -13.274
  -2.592        -13.278
  -2.590        -13.281
  -2.587        -13.284
  -2.585        -13.287
  -2.583        -13.291
  -2.581        -13.294
  -2.579        -13.297
  -2.577        -13.301
  -2.574        -13.304
  -2.572        -13.308
  -2.570        -13.311
  -2.568        -13.315
  -2.566        -13.318
  -2.564        -13.322
  -2.561        -13.326
  -2.559        -13.330
  -2.557        -13.334
  -2.555        -13.338
  -2.553        -13.342
  -2.551        -13.346
  -2.548        -13.350
  -2.546        -13.354
  -2.544        -13.358
  -2.542        -13.362
  -2.540        -13.367
  -2.538        -13.371
  -2.535        -13.375
  -2.533        -13.380
  -2.531        -13.384
  -2.529        -13.389
  -2.527        -13.393
  -2.525        -13.398
  -2.522        -13.403
  -2.520        -13.407
  -2.518        -13.412
  -2.516        -13.417
  -2.514        -13.422
  -2.511        -13.427
  -2.509        -13.432
  -2.507        -13.437
  -2.505        -13.442
  -2.503        -13.448
  -2.501        -13.453
  -2.498        -13.458
  -2.496        -13.464
  -2.494        -13.469
  -2.492        -13.474
  -2.490        -13.480
  -2.488        -13.485
  -2.485        -13.491
  -2.483        -13.497
  -2.481        -13.503
  -2.479        -13.509
  -2.477        -13.515
  -2.475        -13.520
  -2.472        -13.527
  -2.470        -13.533
  -2.468        -13.539
  -2.466        -13.545
  -2.464        -13.551
  -2.462        -13.558
  -2.459        -13.564
  -2.457        -13.571
  -2.455        -13.577
  -2.453        -13.584
  -2.451        -13.590
  -2.448        -13.597
  -2.446        -13.604
  -2.444        -13.611
  -2.442        -13.618
  -2.440        -13.625
  -2.438        -13.632
  -2.435        -13.639
  -2.433        -13.646
  -2.431        -13.653
  -2.429        -13.661
  -2.427        -13.668
  -2.425        -13.676
  -2.422        -13.683
  -2.420        -13.691
  -2.418        -13.698
  -2.416        -13.706
  -2.414        -13.714
  -2.412        -13.722
  -2.409        -13.730
  -2.407        -13.738
  -2.405        -13.746
  -2.403        -13.754
  -2.401        -13.762
  -2.398        -13.771
  -2.396        -13.779
  -2.394        -13.788
  -2.392        -13.796
  -2.390        -13.805
  -2.388        -13.813
  -2.386        -13.822
  -2.383        -13.831
  -2.381        -13.840
  -2.379        -13.849
  -2.377        -13.858
  -2.375        -13.867
  -2.372        -13.877
  -2.370        -13.886
  -2.368        -13.895
  -2.366        -13.905
  -2.364        -13.915
  -2.362        -13.924
  -2.359        -13.934
  -2.357        -13.944
  -2.355        -13.954
  -2.353        -13.963
  -2.351        -13.974
  -2.349        -13.984
  -2.346        -13.994
  -2.344        -14.004
  -2.342        -14.014
  -2.340        -14.025
  -2.338        -14.036
  -2.336        -14.046
  -2.333        -14.057
  -2.331        -14.068
  -2.329        -14.078
  -2.327        -14.089
  -2.325        -14.101
  -2.323        -14.112
  -2.320        -14.123
  -2.318        -14.134
  -2.316        -14.146
  -2.314        -14.157
  -2.312        -14.169
  -2.309        -14.181
  -2.307        -14.192
  -2.305        -14.204
  -2.303        -14.216
  -2.301        -14.228
  -2.299        -14.240
  -2.297        -14.253
  -2.294        -14.265
  -2.292        -14.277
  -2.290        -14.290
  -2.288        -14.303
  -2.286        -14.315
  -2.283        -14.328
  -2.281        -14.341
  -2.279        -14.354
  -2.277        -14.367
  -2.275        -14.380
  -2.273        -14.394
  -2.270        -14.407
  -2.268        -14.421
  -2.266        -14.434
  -2.264        -14.448
  -2.262        -14.462
  -2.260        -14.476
  -2.257        -14.490
  -2.255        -14.504
  -2.253        -14.518
  -2.251        -14.532
  -2.249        -14.547
  -2.247        -14.561
  -2.244        -14.576
  -2.242        -14.591
  -2.240        -14.605
  -2.238        -14.620
  -2.236        -14.635
  -2.234        -14.651
  -2.231        -14.666
  -2.229        -14.681
  -2.227        -14.697
  -2.225        -14.712
  -2.223        -14.728
  -2.220        -14.744
  -2.218        -14.760
  -2.216        -14.776
  -2.214        -14.792
  -2.212        -14.808
  -2.210        -14.825
  -2.207        -14.841
  -2.205        -14.858
  -2.203        -14.875
  -2.201        -14.891
  -2.199        -14.909
  -2.197        -14.926
  -2.194        -14.943
  -2.192        -14.960
  -2.190        -14.978
  -2.188        -14.995
  -2.186        -15.013
  -2.184        -15.031
  -2.181        -15.049
  -2.179        -15.067
  -2.177        -15.085
  -2.175        -15.103
  -2.173        -15.122
  -2.171        -15.140
  -2.168        -15.159
  -2.166        -15.178
  -2.164        -15.196
  -2.162        -15.216
  -2.160        -15.235
  -2.158        -15.254
  -2.155        -15.273
  -2.153        -15.293
  -2.151        -15.313
  -2.149        -15.332
  -2.147        -15.352
  -2.145        -15.373
  -2.142        -15.393
  -2.140        -15.413
  -2.138        -15.434
  -2.136        -15.454
  -2.134        -15.475
  -2.131        -15.496
  -2.129        -15.517
  -2.127        -15.538
  -2.125        -15.560
  -2.123        -15.581
  -2.121        -15.603
  -2.118        -15.624
  -2.116        -15.646
  -2.114        -15.668
  -2.112        -15.690
  -2.110        -15.713
  -2.108        -15.735
  -2.105        -15.758
  -2.103        -15.780
  -2.101        -15.803
  -2.099        -15.826
  -2.097        -15.849
  -2.095        -15.873
  -2.092        -15.896
  -2.090        -15.920
  -2.088        -15.944
  -2.086        -15.968
  -2.084        -15.992
  -2.082        -16.016
  -2.079        -16.040
  -2.077        -16.065
  -2.075        -16.089
  -2.073        -16.114
  -2.071        -16.139
  -2.069        -16.164
  -2.066        -16.190
  -2.064        -16.215
  -2.062        -16.241
  -2.060        -16.267
  -2.058        -16.292
  -2.056        -16.319
  -2.053        -16.345
  -2.051        -16.371
  -2.049        -16.397
  -2.047        -16.424
  -2.045        -16.451
  -2.043        -16.478
  -2.040        -16.505
  -2.038        -16.533
  -2.036        -16.560
  -2.034        -16.588
  -2.032        -16.616
  -2.029        -16.643
  -2.027        -16.672
  -2.025        -16.700
  -2.023        -16.728
  -2.021        -16.757
  -2.019        -16.785
  -2.016        -16.814
  -2.014        -16.843
  -2.012        -16.873
  -2.010        -16.902
  -2.008        -16.931
  -2.006        -16.961
  -2.003        -16.991
  -2.001        -17.020
  -1.999        -17.050
  -1.997        -17.080
  -1.995        -17.111
  -1.993        -17.141
  -1.990        -17.172
  -1.988        -17.202
  -1.986        -17.233
  -1.984        -17.264
  -1.982        -17.295
  -1.980        -17.326
  -1.977        -17.357
  -1.975        -17.389
  -1.973        -17.420
  -1.971        -17.451
  -1.969        -17.483
  -1.967        -17.514
  -1.964        -17.546
  -1.962        -17.578
  -1.960        -17.609
  -1.958        -17.641
  -1.956        -17.673
  -1.953        -17.704
  -1.951        -17.736
  -1.949        -17.767
