# log Energy    log Jnu
# (eV)          (ergs/s/cm2/Hz/Sr)
  -6.864        -20.472
  -6.820        -20.385
  -6.777        -20.298
  -6.734        -20.211
  -6.690        -20.124
  -6.647        -20.038
  -6.603        -19.951
  -6.560        -19.864
  -6.516        -19.777
  -6.473        -19.690
  -6.430        -19.603
  -6.386        -19.516
  -6.343        -19.430
  -6.299        -19.343
  -6.256        -19.256
  -6.212        -19.169
  -6.169        -19.082
  -6.126        -18.995
  -6.082        -18.909
  -6.039        -18.822
  -5.995        -18.735
  -5.952        -18.648
  -5.908        -18.561
  -5.865        -18.475
  -5.822        -18.388
  -5.778        -18.301
  -5.735        -18.214
  -5.691        -18.127
  -5.648        -18.040
  -5.605        -17.954
  -5.561        -17.867
  -5.518        -17.780
  -5.474        -17.693
  -5.431        -17.607
  -5.387        -17.520
  -5.344        -17.433
  -5.300        -17.346
  -5.257        -17.260
  -5.214        -17.173
  -5.170        -17.086
  -5.127        -17.000
  -5.083        -16.913
  -5.040        -16.826
  -4.996        -16.740
  -4.953        -16.653
  -4.910        -16.567
  -4.866        -16.480
  -4.823        -16.394
  -4.779        -16.308
  -4.736        -16.221
  -4.692        -16.135
  -4.649        -16.049
  -4.606        -15.963
  -4.562        -15.877
  -4.519        -15.791
  -4.475        -15.705
  -4.432        -15.619
  -4.388        -15.533
  -4.345        -15.448
  -4.302        -15.362
  -4.258        -15.277
  -4.215        -15.192
  -4.171        -15.107
  -4.128        -15.023
  -4.084        -14.938
  -4.041        -14.854
  -3.998        -14.770
  -3.954        -14.686
  -3.911        -14.603
  -3.867        -14.520
  -3.824        -14.438
  -3.781        -14.356
  -3.737        -14.275
  -3.693        -14.194
  -3.650        -14.114
  -3.607        -14.035
  -3.584        -13.998
  -3.582        -13.988
  -3.580        -13.986
  -3.577        -13.983
  -3.575        -13.979
  -3.573        -13.975
  -3.571        -13.971
  -3.569        -13.967
  -3.567        -13.964
  -3.564        -13.960
  -3.562        -13.956
  -3.560        -13.952
  -3.558        -13.948
  -3.556        -13.944
  -3.554        -13.940
  -3.551        -13.936
  -3.549        -13.932
  -3.547        -13.928
  -3.545        -13.925
  -3.543        -13.921
  -3.540        -13.917
  -3.538        -13.913
  -3.536        -13.909
  -3.534        -13.905
  -3.532        -13.901
  -3.530        -13.898
  -3.528        -13.894
  -3.525        -13.890
  -3.523        -13.886
  -3.521        -13.882
  -3.519        -13.878
  -3.517        -13.874
  -3.514        -13.871
  -3.512        -13.867
  -3.510        -13.863
  -3.508        -13.859
  -3.506        -13.855
  -3.504        -13.851
  -3.502        -13.847
  -3.499        -13.844
  -3.497        -13.840
  -3.495        -13.836
  -3.493        -13.832
  -3.491        -13.828
  -3.488        -13.825
  -3.486        -13.821
  -3.484        -13.817
  -3.482        -13.813
  -3.480        -13.809
  -3.477        -13.806
  -3.475        -13.802
  -3.473        -13.798
  -3.471        -13.794
  -3.469        -13.790
  -3.467        -13.786
  -3.464        -13.783
  -3.462        -13.779
  -3.460        -13.775
  -3.458        -13.771
  -3.456        -13.768
  -3.454        -13.764
  -3.451        -13.760
  -3.449        -13.756
  -3.447        -13.753
  -3.445        -13.749
  -3.443        -13.745
  -3.441        -13.741
  -3.438        -13.738
  -3.436        -13.734
  -3.434        -13.730
  -3.432        -13.726
  -3.430        -13.723
  -3.428        -13.719
  -3.425        -13.715
  -3.423        -13.712
  -3.421        -13.708
  -3.419        -13.704
  -3.417        -13.700
  -3.415        -13.697
  -3.412        -13.693
  -3.410        -13.689
  -3.408        -13.685
  -3.406        -13.682
  -3.404        -13.678
  -3.402        -13.674
  -3.399        -13.671
  -3.397        -13.667
  -3.395        -13.663
  -3.393        -13.660
  -3.391        -13.656
  -3.389        -13.652
  -3.386        -13.649
  -3.384        -13.645
  -3.382        -13.641
  -3.380        -13.638
  -3.378        -13.634
  -3.376        -13.630
  -3.373        -13.627
  -3.371        -13.623
  -3.369        -13.620
  -3.367        -13.616
  -3.365        -13.612
  -3.362        -13.609
  -3.360        -13.605
  -3.358        -13.601
  -3.356        -13.598
  -3.354        -13.594
  -3.352        -13.591
  -3.349        -13.587
  -3.347        -13.583
  -3.345        -13.580
  -3.343        -13.576
  -3.341        -13.573
  -3.339        -13.569
  -3.336        -13.565
  -3.334        -13.562
  -3.332        -13.558
  -3.330        -13.555
  -3.328        -13.551
  -3.326        -13.548
  -3.323        -13.544
  -3.321        -13.541
  -3.319        -13.537
  -3.317        -13.533
  -3.315        -13.530
  -3.313        -13.526
  -3.310        -13.523
  -3.308        -13.519
  -3.306        -13.516
  -3.304        -13.512
  -3.302        -13.509
  -3.300        -13.505
  -3.297        -13.502
  -3.295        -13.498
  -3.293        -13.495
  -3.291        -13.491
  -3.289        -13.488
  -3.287        -13.485
  -3.284        -13.481
  -3.282        -13.478
  -3.280        -13.474
  -3.278        -13.471
  -3.276        -13.467
  -3.273        -13.464
  -3.271        -13.460
  -3.269        -13.457
  -3.267        -13.453
  -3.265        -13.450
  -3.263        -13.447
  -3.260        -13.443
  -3.258        -13.440
  -3.256        -13.436
  -3.254        -13.433
  -3.252        -13.430
  -3.250        -13.426
  -3.247        -13.423
  -3.245        -13.419
  -3.243        -13.416
  -3.241        -13.413
  -3.239        -13.409
  -3.237        -13.406
  -3.234        -13.403
  -3.232        -13.399
  -3.230        -13.396
  -3.228        -13.393
  -3.226        -13.389
  -3.224        -13.386
  -3.221        -13.383
  -3.219        -13.379
  -3.217        -13.376
  -3.215        -13.373
  -3.213        -13.370
  -3.211        -13.366
  -3.208        -13.363
  -3.206        -13.360
  -3.204        -13.357
  -3.202        -13.353
  -3.200        -13.350
  -3.197        -13.347
  -3.195        -13.343
  -3.193        -13.340
  -3.191        -13.337
  -3.189        -13.334
  -3.187        -13.331
  -3.184        -13.327
  -3.182        -13.324
  -3.180        -13.321
  -3.178        -13.318
  -3.176        -13.315
  -3.174        -13.311
  -3.171        -13.308
  -3.169        -13.305
  -3.167        -13.302
  -3.165        -13.299
  -3.163        -13.296
  -3.161        -13.293
  -3.158        -13.289
  -3.156        -13.286
  -3.154        -13.283
  -3.152        -13.280
  -3.150        -13.277
  -3.148        -13.274
  -3.145        -13.271
  -3.143        -13.268
  -3.141        -13.265
  -3.139        -13.262
  -3.137        -13.259
  -3.135        -13.255
  -3.132        -13.252
  -3.130        -13.249
  -3.128        -13.246
  -3.126        -13.243
  -3.124        -13.240
  -3.122        -13.237
  -3.119        -13.234
  -3.117        -13.231
  -3.115        -13.228
  -3.113        -13.225
  -3.111        -13.222
  -3.108        -13.219
  -3.106        -13.216
  -3.104        -13.214
  -3.102        -13.211
  -3.100        -13.208
  -3.098        -13.205
  -3.095        -13.202
  -3.093        -13.199
  -3.091        -13.196
  -3.089        -13.193
  -3.087        -13.190
  -3.085        -13.187
  -3.082        -13.185
  -3.080        -13.182
  -3.078        -13.179
  -3.076        -13.176
  -3.074        -13.173
  -3.072        -13.170
  -3.069        -13.167
  -3.067        -13.165
  -3.065        -13.162
  -3.063        -13.159
  -3.061        -13.156
  -3.059        -13.154
  -3.056        -13.151
  -3.054        -13.148
  -3.052        -13.145
  -3.050        -13.143
  -3.048        -13.140
  -3.046        -13.137
  -3.043        -13.135
  -3.041        -13.132
  -3.039        -13.129
  -3.037        -13.127
  -3.035        -13.124
  -3.032        -13.121
  -3.030        -13.119
  -3.028        -13.116
  -3.026        -13.113
  -3.024        -13.111
  -3.022        -13.108
  -3.019        -13.105
  -3.017        -13.103
  -3.015        -13.100
  -3.013        -13.098
  -3.011        -13.095
  -3.009        -13.093
  -3.006        -13.090
  -3.004        -13.088
  -3.002        -13.085
  -3.000        -13.083
  -2.998        -13.080
  -2.996        -13.078
  -2.993        -13.075
  -2.991        -13.073
  -2.989        -13.070
  -2.987        -13.068
  -2.985        -13.065
  -2.983        -13.063
  -2.980        -13.061
  -2.978        -13.058
  -2.976        -13.056
  -2.974        -13.054
  -2.972        -13.051
  -2.970        -13.049
  -2.967        -13.047
  -2.965        -13.044
  -2.963        -13.042
  -2.961        -13.040
  -2.959        -13.037
  -2.956        -13.035
  -2.954        -13.033
  -2.952        -13.031
  -2.950        -13.028
  -2.948        -13.026
  -2.946        -13.024
  -2.944        -13.022
  -2.941        -13.020
  -2.939        -13.017
  -2.937        -13.015
  -2.935        -13.013
  -2.933        -13.011
  -2.930        -13.009
  -2.928        -13.007
  -2.926        -13.005
  -2.924        -13.003
  -2.922        -13.001
  -2.920        -12.999
  -2.917        -12.997
  -2.915        -12.995
  -2.913        -12.993
  -2.911        -12.991
  -2.909        -12.989
  -2.907        -12.987
  -2.904        -12.985
  -2.902        -12.983
  -2.900        -12.981
  -2.898        -12.979
  -2.896        -12.977
  -2.894        -12.975
  -2.891        -12.973
  -2.889        -12.971
  -2.887        -12.970
  -2.885        -12.968
  -2.883        -12.966
  -2.880        -12.964
  -2.878        -12.963
  -2.876        -12.961
  -2.874        -12.959
  -2.872        -12.957
  -2.870        -12.955
  -2.867        -12.954
  -2.865        -12.952
  -2.863        -12.951
  -2.861        -12.949
  -2.859        -12.947
  -2.857        -12.946
  -2.855        -12.944
  -2.852        -12.943
  -2.850        -12.941
  -2.848        -12.940
  -2.846        -12.938
  -2.843        -12.937
  -2.842        -12.935
  -2.839        -12.934
  -2.837        -12.932
  -2.835        -12.931
  -2.833        -12.929
  -2.831        -12.928
  -2.828        -12.926
  -2.826        -12.925
  -2.824        -12.923
  -2.822        -12.922
  -2.820        -12.921
  -2.817        -12.920
  -2.815        -12.919
  -2.813        -12.917
  -2.811        -12.916
  -2.809        -12.915
  -2.807        -12.913
  -2.805        -12.912
  -2.802        -12.911
  -2.800        -12.910
  -2.798        -12.909
  -2.796        -12.908
  -2.794        -12.907
  -2.792        -12.906
  -2.789        -12.905
  -2.787        -12.904
  -2.785        -12.903
  -2.783        -12.902
  -2.781        -12.901
  -2.779        -12.900
  -2.776        -12.899
  -2.774        -12.898
  -2.772        -12.897
  -2.770        -12.896
  -2.767        -12.896
  -2.765        -12.895
  -2.763        -12.894
  -2.761        -12.893
  -2.759        -12.892
  -2.757        -12.892
  -2.754        -12.891
  -2.753        -12.890
  -2.750        -12.889
  -2.748        -12.889
  -2.746        -12.888
  -2.744        -12.888
  -2.741        -12.887
  -2.739        -12.887
  -2.737        -12.886
  -2.735        -12.886
  -2.733        -12.885
  -2.731        -12.885
  -2.729        -12.884
  -2.726        -12.884
  -2.724        -12.884
  -2.722        -12.883
  -2.720        -12.883
  -2.718        -12.883
  -2.716        -12.882
  -2.713        -12.882
  -2.711        -12.882
  -2.709        -12.881
  -2.707        -12.881
  -2.705        -12.881
  -2.703        -12.881
  -2.700        -12.881
  -2.698        -12.881
  -2.696        -12.881
  -2.694        -12.881
  -2.692        -12.881
  -2.689        -12.881
  -2.687        -12.881
  -2.685        -12.881
  -2.683        -12.881
  -2.681        -12.881
  -2.679        -12.881
  -2.677        -12.882
  -2.674        -12.882
  -2.672        -12.882
  -2.670        -12.882
  -2.668        -12.883
  -2.666        -12.883
  -2.663        -12.884
  -2.661        -12.884
  -2.659        -12.884
  -2.657        -12.885
  -2.655        -12.885
  -2.653        -12.886
  -2.650        -12.886
  -2.648        -12.887
  -2.646        -12.888
  -2.644        -12.888
  -2.642        -12.889
  -2.640        -12.889
  -2.637        -12.890
  -2.635        -12.891
  -2.633        -12.892
  -2.631        -12.893
  -2.629        -12.894
  -2.626        -12.894
  -2.624        -12.895
  -2.622        -12.896
  -2.620        -12.897
  -2.618        -12.898
  -2.616        -12.899
  -2.614        -12.900
  -2.611        -12.902
  -2.609        -12.903
  -2.607        -12.904
  -2.605        -12.905
  -2.603        -12.906
  -2.600        -12.908
  -2.598        -12.909
  -2.596        -12.910
  -2.594        -12.912
  -2.592        -12.913
  -2.590        -12.915
  -2.587        -12.916
  -2.585        -12.918
  -2.583        -12.919
  -2.581        -12.921
  -2.579        -12.923
  -2.577        -12.924
  -2.574        -12.926
  -2.572        -12.928
  -2.570        -12.930
  -2.568        -12.931
  -2.566        -12.933
  -2.564        -12.935
  -2.561        -12.937
  -2.559        -12.939
  -2.557        -12.941
  -2.555        -12.943
  -2.553        -12.945
  -2.551        -12.947
  -2.548        -12.950
  -2.546        -12.952
  -2.544        -12.954
  -2.542        -12.957
  -2.540        -12.959
  -2.538        -12.961
  -2.535        -12.964
  -2.533        -12.966
  -2.531        -12.969
  -2.529        -12.971
  -2.527        -12.974
  -2.525        -12.976
  -2.522        -12.979
  -2.520        -12.982
  -2.518        -12.985
  -2.516        -12.988
  -2.514        -12.990
  -2.511        -12.993
  -2.509        -12.996
  -2.507        -12.999
  -2.505        -13.002
  -2.503        -13.005
  -2.501        -13.008
  -2.498        -13.012
  -2.496        -13.015
  -2.494        -13.018
  -2.492        -13.021
  -2.490        -13.025
  -2.488        -13.028
  -2.485        -13.032
  -2.483        -13.035
  -2.481        -13.039
  -2.479        -13.042
  -2.477        -13.046
  -2.475        -13.050
  -2.472        -13.053
  -2.470        -13.057
  -2.468        -13.061
  -2.466        -13.065
  -2.464        -13.069
  -2.462        -13.073
  -2.459        -13.077
  -2.457        -13.081
  -2.455        -13.085
  -2.453        -13.089
  -2.451        -13.094
  -2.448        -13.098
  -2.446        -13.102
  -2.444        -13.107
  -2.442        -13.111
  -2.440        -13.116
  -2.438        -13.120
  -2.435        -13.125
  -2.433        -13.130
  -2.431        -13.134
  -2.429        -13.139
  -2.427        -13.144
  -2.425        -13.149
  -2.422        -13.154
  -2.420        -13.159
  -2.418        -13.164
  -2.416        -13.169
  -2.414        -13.174
  -2.412        -13.179
  -2.409        -13.185
  -2.407        -13.190
  -2.405        -13.195
  -2.403        -13.201
  -2.401        -13.206
  -2.398        -13.212
  -2.396        -13.218
  -2.394        -13.223
  -2.392        -13.229
  -2.390        -13.235
  -2.388        -13.241
  -2.386        -13.247
  -2.383        -13.253
  -2.381        -13.259
  -2.379        -13.265
  -2.377        -13.271
  -2.375        -13.277
  -2.372        -13.284
  -2.370        -13.290
  -2.368        -13.297
  -2.366        -13.303
  -2.364        -13.310
  -2.362        -13.316
  -2.359        -13.323
  -2.357        -13.330
  -2.355        -13.337
  -2.353        -13.343
  -2.351        -13.350
  -2.349        -13.357
  -2.346        -13.365
  -2.344        -13.372
  -2.342        -13.379
  -2.340        -13.386
  -2.338        -13.394
  -2.336        -13.401
  -2.333        -13.409
  -2.331        -13.416
  -2.329        -13.424
  -2.327        -13.432
  -2.325        -13.439
  -2.323        -13.447
  -2.320        -13.455
  -2.318        -13.463
  -2.316        -13.471
  -2.314        -13.479
  -2.312        -13.487
  -2.309        -13.496
  -2.307        -13.504
  -2.305        -13.513
  -2.303        -13.521
  -2.301        -13.530
  -2.299        -13.538
  -2.297        -13.547
  -2.294        -13.556
  -2.292        -13.565
  -2.290        -13.574
  -2.288        -13.583
  -2.286        -13.592
  -2.283        -13.601
  -2.281        -13.610
  -2.279        -13.620
  -2.277        -13.629
  -2.275        -13.639
  -2.273        -13.648
  -2.270        -13.658
  -2.268        -13.668
  -2.266        -13.678
  -2.264        -13.687
  -2.262        -13.698
  -2.260        -13.708
  -2.257        -13.718
  -2.255        -13.728
  -2.253        -13.738
  -2.251        -13.749
  -2.249        -13.759
  -2.247        -13.770
  -2.244        -13.781
  -2.242        -13.791
  -2.240        -13.802
  -2.238        -13.813
  -2.236        -13.824
  -2.234        -13.835
  -2.231        -13.846
  -2.229        -13.858
  -2.227        -13.869
  -2.225        -13.881
  -2.223        -13.892
  -2.220        -13.904
  -2.218        -13.915
  -2.216        -13.927
  -2.214        -13.939
  -2.212        -13.951
  -2.210        -13.963
  -2.207        -13.976
  -2.205        -13.988
  -2.203        -14.000
  -2.201        -14.013
  -2.199        -14.025
  -2.197        -14.038
  -2.194        -14.051
  -2.192        -14.063
  -2.190        -14.077
  -2.188        -14.090
  -2.186        -14.103
  -2.184        -14.116
  -2.181        -14.129
  -2.179        -14.143
  -2.177        -14.156
  -2.175        -14.170
  -2.173        -14.184
  -2.171        -14.197
  -2.168        -14.212
  -2.166        -14.225
  -2.164        -14.240
  -2.162        -14.254
  -2.160        -14.268
  -2.158        -14.283
  -2.155        -14.298
  -2.153        -14.312
  -2.151        -14.327
  -2.149        -14.342
  -2.147        -14.357
  -2.145        -14.372
  -2.142        -14.387
  -2.140        -14.402
  -2.138        -14.418
  -2.136        -14.433
  -2.134        -14.449
  -2.131        -14.465
  -2.129        -14.481
  -2.127        -14.497
  -2.125        -14.513
  -2.123        -14.529
  -2.121        -14.545
  -2.118        -14.562
  -2.116        -14.578
  -2.114        -14.595
  -2.112        -14.612
  -2.110        -14.629
  -2.108        -14.646
  -2.105        -14.663
  -2.103        -14.680
  -2.101        -14.698
  -2.099        -14.715
  -2.097        -14.733
  -2.095        -14.751
  -2.092        -14.768
  -2.090        -14.786
  -2.088        -14.805
  -2.086        -14.823
  -2.084        -14.841
  -2.082        -14.860
  -2.079        -14.878
  -2.077        -14.897
  -2.075        -14.916
  -2.073        -14.935
  -2.071        -14.954
  -2.069        -14.973
  -2.066        -14.993
  -2.064        -15.012
  -2.062        -15.032
  -2.060        -15.051
  -2.058        -15.071
  -2.056        -15.091
  -2.053        -15.111
  -2.051        -15.132
  -2.049        -15.152
  -2.047        -15.173
  -2.045        -15.194
  -2.043        -15.214
  -2.040        -15.235
  -2.038        -15.256
  -2.036        -15.278
  -2.034        -15.299
  -2.032        -15.320
  -2.029        -15.342
  -2.027        -15.364
  -2.025        -15.386
  -2.023        -15.408
  -2.021        -15.430
  -2.019        -15.453
  -2.016        -15.475
  -2.014        -15.498
  -2.012        -15.521
  -2.010        -15.544
  -2.008        -15.567
  -2.006        -15.590
  -2.003        -15.613
  -2.001        -15.637
  -1.999        -15.660
  -1.997        -15.684
  -1.995        -15.708
  -1.993        -15.732
  -1.990        -15.757
  -1.988        -15.781
  -1.986        -15.806
  -1.984        -15.830
  -1.982        -15.855
  -1.980        -15.881
  -1.977        -15.906
  -1.975        -15.931
  -1.973        -15.957
  -1.971        -15.982
  -1.969        -16.008
  -1.967        -16.034
  -1.964        -16.060
  -1.962        -16.087
  -1.960        -16.113
  -1.958        -16.140
  -1.956        -16.167
  -1.953        -16.194
  -1.951        -16.221
  -1.949        -16.248
