# log Energy    log Jnu
# (eV)          (ergs/s/cm2/Hz/Sr)
  -6.864        -20.676
  -6.820        -20.589
  -6.777        -20.502
  -6.734        -20.415
  -6.690        -20.329
  -6.647        -20.242
  -6.603        -20.155
  -6.560        -20.068
  -6.516        -19.981
  -6.473        -19.894
  -6.430        -19.807
  -6.386        -19.721
  -6.343        -19.634
  -6.299        -19.547
  -6.256        -19.460
  -6.212        -19.373
  -6.169        -19.287
  -6.126        -19.200
  -6.082        -19.113
  -6.039        -19.026
  -5.995        -18.939
  -5.952        -18.852
  -5.908        -18.766
  -5.865        -18.679
  -5.822        -18.592
  -5.778        -18.505
  -5.735        -18.419
  -5.691        -18.332
  -5.648        -18.245
  -5.605        -18.158
  -5.561        -18.072
  -5.518        -17.985
  -5.474        -17.898
  -5.431        -17.811
  -5.387        -17.725
  -5.344        -17.638
  -5.300        -17.551
  -5.257        -17.465
  -5.214        -17.378
  -5.170        -17.292
  -5.127        -17.205
  -5.083        -17.119
  -5.040        -17.032
  -4.996        -16.946
  -4.953        -16.860
  -4.910        -16.773
  -4.866        -16.687
  -4.823        -16.601
  -4.779        -16.515
  -4.736        -16.429
  -4.692        -16.343
  -4.649        -16.257
  -4.606        -16.171
  -4.562        -16.086
  -4.519        -16.000
  -4.475        -15.915
  -4.432        -15.830
  -4.388        -15.745
  -4.345        -15.660
  -4.302        -15.576
  -4.258        -15.491
  -4.215        -15.407
  -4.171        -15.324
  -4.128        -15.240
  -4.084        -15.158
  -4.041        -15.075
  -3.998        -14.993
  -3.954        -14.911
  -3.911        -14.831
  -3.867        -14.750
  -3.824        -14.671
  -3.781        -14.592
  -3.737        -14.514
  -3.693        -14.437
  -3.650        -14.361
  -3.607        -14.288
  -3.584        -14.253
  -3.582        -14.243
  -3.580        -14.242
  -3.577        -14.239
  -3.575        -14.236
  -3.573        -14.232
  -3.571        -14.228
  -3.569        -14.224
  -3.567        -14.221
  -3.564        -14.217
  -3.562        -14.214
  -3.560        -14.210
  -3.558        -14.206
  -3.556        -14.203
  -3.554        -14.199
  -3.551        -14.196
  -3.549        -14.192
  -3.547        -14.188
  -3.545        -14.185
  -3.543        -14.181
  -3.540        -14.178
  -3.538        -14.174
  -3.536        -14.171
  -3.534        -14.167
  -3.532        -14.164
  -3.530        -14.160
  -3.528        -14.156
  -3.525        -14.153
  -3.523        -14.149
  -3.521        -14.146
  -3.519        -14.142
  -3.517        -14.139
  -3.514        -14.135
  -3.512        -14.132
  -3.510        -14.128
  -3.508        -14.125
  -3.506        -14.121
  -3.504        -14.118
  -3.502        -14.114
  -3.499        -14.111
  -3.497        -14.107
  -3.495        -14.104
  -3.493        -14.100
  -3.491        -14.097
  -3.488        -14.093
  -3.486        -14.090
  -3.484        -14.086
  -3.482        -14.083
  -3.480        -14.080
  -3.477        -14.076
  -3.475        -14.073
  -3.473        -14.069
  -3.471        -14.066
  -3.469        -14.062
  -3.467        -14.059
  -3.464        -14.056
  -3.462        -14.052
  -3.460        -14.049
  -3.458        -14.045
  -3.456        -14.042
  -3.454        -14.039
  -3.451        -14.035
  -3.449        -14.032
  -3.447        -14.029
  -3.445        -14.025
  -3.443        -14.022
  -3.441        -14.018
  -3.438        -14.015
  -3.436        -14.012
  -3.434        -14.008
  -3.432        -14.005
  -3.430        -14.002
  -3.428        -13.999
  -3.425        -13.995
  -3.423        -13.992
  -3.421        -13.989
  -3.419        -13.985
  -3.417        -13.982
  -3.415        -13.978
  -3.412        -13.975
  -3.410        -13.972
  -3.408        -13.969
  -3.406        -13.965
  -3.404        -13.962
  -3.402        -13.959
  -3.399        -13.956
  -3.397        -13.953
  -3.395        -13.949
  -3.393        -13.946
  -3.391        -13.943
  -3.389        -13.940
  -3.386        -13.936
  -3.384        -13.933
  -3.382        -13.930
  -3.380        -13.927
  -3.378        -13.924
  -3.376        -13.920
  -3.373        -13.917
  -3.371        -13.914
  -3.369        -13.911
  -3.367        -13.908
  -3.365        -13.905
  -3.362        -13.902
  -3.360        -13.899
  -3.358        -13.895
  -3.356        -13.892
  -3.354        -13.889
  -3.352        -13.886
  -3.349        -13.883
  -3.347        -13.880
  -3.345        -13.877
  -3.343        -13.874
  -3.341        -13.871
  -3.339        -13.868
  -3.336        -13.865
  -3.334        -13.862
  -3.332        -13.859
  -3.330        -13.856
  -3.328        -13.853
  -3.326        -13.850
  -3.323        -13.847
  -3.321        -13.844
  -3.319        -13.841
  -3.317        -13.838
  -3.315        -13.835
  -3.313        -13.832
  -3.310        -13.829
  -3.308        -13.826
  -3.306        -13.823
  -3.304        -13.820
  -3.302        -13.817
  -3.300        -13.814
  -3.297        -13.811
  -3.295        -13.808
  -3.293        -13.805
  -3.291        -13.803
  -3.289        -13.800
  -3.287        -13.797
  -3.284        -13.794
  -3.282        -13.791
  -3.280        -13.788
  -3.278        -13.786
  -3.276        -13.783
  -3.273        -13.780
  -3.271        -13.777
  -3.269        -13.774
  -3.267        -13.771
  -3.265        -13.769
  -3.263        -13.766
  -3.260        -13.763
  -3.258        -13.760
  -3.256        -13.758
  -3.254        -13.755
  -3.252        -13.752
  -3.250        -13.750
  -3.247        -13.747
  -3.245        -13.744
  -3.243        -13.742
  -3.241        -13.739
  -3.239        -13.736
  -3.237        -13.734
  -3.234        -13.731
  -3.232        -13.728
  -3.230        -13.726
  -3.228        -13.723
  -3.226        -13.720
  -3.224        -13.718
  -3.221        -13.715
  -3.219        -13.713
  -3.217        -13.710
  -3.215        -13.708
  -3.213        -13.705
  -3.211        -13.703
  -3.208        -13.700
  -3.206        -13.698
  -3.204        -13.695
  -3.202        -13.693
  -3.200        -13.690
  -3.197        -13.688
  -3.195        -13.685
  -3.193        -13.683
  -3.191        -13.680
  -3.189        -13.678
  -3.187        -13.675
  -3.184        -13.673
  -3.182        -13.671
  -3.180        -13.668
  -3.178        -13.666
  -3.176        -13.664
  -3.174        -13.661
  -3.171        -13.659
  -3.169        -13.657
  -3.167        -13.654
  -3.165        -13.652
  -3.163        -13.650
  -3.161        -13.648
  -3.158        -13.645
  -3.156        -13.643
  -3.154        -13.641
  -3.152        -13.639
  -3.150        -13.636
  -3.148        -13.634
  -3.145        -13.632
  -3.143        -13.630
  -3.141        -13.628
  -3.139        -13.626
  -3.137        -13.623
  -3.135        -13.621
  -3.132        -13.619
  -3.130        -13.617
  -3.128        -13.615
  -3.126        -13.613
  -3.124        -13.611
  -3.122        -13.609
  -3.119        -13.607
  -3.117        -13.605
  -3.115        -13.603
  -3.113        -13.601
  -3.111        -13.599
  -3.108        -13.597
  -3.106        -13.595
  -3.104        -13.593
  -3.102        -13.591
  -3.100        -13.589
  -3.098        -13.588
  -3.095        -13.586
  -3.093        -13.584
  -3.091        -13.582
  -3.089        -13.580
  -3.087        -13.578
  -3.085        -13.577
  -3.082        -13.575
  -3.080        -13.573
  -3.078        -13.571
  -3.076        -13.570
  -3.074        -13.568
  -3.072        -13.566
  -3.069        -13.565
  -3.067        -13.563
  -3.065        -13.561
  -3.063        -13.560
  -3.061        -13.558
  -3.059        -13.556
  -3.056        -13.555
  -3.054        -13.553
  -3.052        -13.552
  -3.050        -13.550
  -3.048        -13.549
  -3.046        -13.547
  -3.043        -13.546
  -3.041        -13.544
  -3.039        -13.543
  -3.037        -13.542
  -3.035        -13.540
  -3.032        -13.539
  -3.030        -13.537
  -3.028        -13.536
  -3.026        -13.535
  -3.024        -13.533
  -3.022        -13.532
  -3.019        -13.531
  -3.017        -13.530
  -3.015        -13.528
  -3.013        -13.527
  -3.011        -13.526
  -3.009        -13.525
  -3.006        -13.524
  -3.004        -13.522
  -3.002        -13.521
  -3.000        -13.520
  -2.998        -13.519
  -2.996        -13.518
  -2.993        -13.517
  -2.991        -13.516
  -2.989        -13.515
  -2.987        -13.514
  -2.985        -13.513
  -2.983        -13.512
  -2.980        -13.511
  -2.978        -13.510
  -2.976        -13.509
  -2.974        -13.508
  -2.972        -13.508
  -2.970        -13.507
  -2.967        -13.506
  -2.965        -13.505
  -2.963        -13.505
  -2.961        -13.504
  -2.959        -13.503
  -2.956        -13.503
  -2.954        -13.502
  -2.952        -13.501
  -2.950        -13.500
  -2.948        -13.500
  -2.946        -13.500
  -2.944        -13.499
  -2.941        -13.498
  -2.939        -13.498
  -2.937        -13.497
  -2.935        -13.497
  -2.933        -13.497
  -2.930        -13.496
  -2.928        -13.496
  -2.926        -13.495
  -2.924        -13.495
  -2.922        -13.495
  -2.920        -13.495
  -2.917        -13.494
  -2.915        -13.494
  -2.913        -13.494
  -2.911        -13.494
  -2.909        -13.494
  -2.907        -13.493
  -2.904        -13.493
  -2.902        -13.493
  -2.900        -13.493
  -2.898        -13.493
  -2.896        -13.493
  -2.894        -13.493
  -2.891        -13.493
  -2.889        -13.493
  -2.887        -13.494
  -2.885        -13.494
  -2.883        -13.494
  -2.880        -13.494
  -2.878        -13.494
  -2.876        -13.495
  -2.874        -13.495
  -2.872        -13.495
  -2.870        -13.495
  -2.867        -13.496
  -2.865        -13.496
  -2.863        -13.497
  -2.861        -13.497
  -2.859        -13.498
  -2.857        -13.498
  -2.855        -13.499
  -2.852        -13.499
  -2.850        -13.500
  -2.848        -13.501
  -2.846        -13.501
  -2.843        -13.502
  -2.842        -13.503
  -2.839        -13.504
  -2.837        -13.504
  -2.835        -13.505
  -2.833        -13.506
  -2.831        -13.507
  -2.828        -13.508
  -2.826        -13.509
  -2.824        -13.510
  -2.822        -13.511
  -2.820        -13.512
  -2.817        -13.513
  -2.815        -13.514
  -2.813        -13.515
  -2.811        -13.516
  -2.809        -13.517
  -2.807        -13.519
  -2.805        -13.520
  -2.802        -13.522
  -2.800        -13.523
  -2.798        -13.524
  -2.796        -13.525
  -2.794        -13.527
  -2.792        -13.529
  -2.789        -13.530
  -2.787        -13.532
  -2.785        -13.533
  -2.783        -13.535
  -2.781        -13.537
  -2.779        -13.538
  -2.776        -13.540
  -2.774        -13.542
  -2.772        -13.544
  -2.770        -13.546
  -2.767        -13.548
  -2.765        -13.550
  -2.763        -13.552
  -2.761        -13.554
  -2.759        -13.556
  -2.757        -13.558
  -2.754        -13.560
  -2.753        -13.562
  -2.750        -13.564
  -2.748        -13.567
  -2.746        -13.569
  -2.744        -13.571
  -2.741        -13.574
  -2.739        -13.576
  -2.737        -13.579
  -2.735        -13.581
  -2.733        -13.584
  -2.731        -13.586
  -2.729        -13.589
  -2.726        -13.592
  -2.724        -13.595
  -2.722        -13.597
  -2.720        -13.600
  -2.718        -13.603
  -2.716        -13.606
  -2.713        -13.608
  -2.711        -13.612
  -2.709        -13.615
  -2.707        -13.618
  -2.705        -13.621
  -2.703        -13.624
  -2.700        -13.627
  -2.698        -13.631
  -2.696        -13.634
  -2.694        -13.637
  -2.692        -13.641
  -2.689        -13.644
  -2.687        -13.648
  -2.685        -13.651
  -2.683        -13.655
  -2.681        -13.658
  -2.679        -13.662
  -2.677        -13.666
  -2.674        -13.670
  -2.672        -13.674
  -2.670        -13.678
  -2.668        -13.681
  -2.666        -13.685
  -2.663        -13.690
  -2.661        -13.694
  -2.659        -13.698
  -2.657        -13.702
  -2.655        -13.706
  -2.653        -13.711
  -2.650        -13.715
  -2.648        -13.719
  -2.646        -13.724
  -2.644        -13.728
  -2.642        -13.733
  -2.640        -13.737
  -2.637        -13.742
  -2.635        -13.747
  -2.633        -13.752
  -2.631        -13.756
  -2.629        -13.761
  -2.626        -13.766
  -2.624        -13.771
  -2.622        -13.776
  -2.620        -13.781
  -2.618        -13.787
  -2.616        -13.792
  -2.614        -13.797
  -2.611        -13.803
  -2.609        -13.808
  -2.607        -13.813
  -2.605        -13.819
  -2.603        -13.825
  -2.600        -13.830
  -2.598        -13.836
  -2.596        -13.842
  -2.594        -13.847
  -2.592        -13.853
  -2.590        -13.859
  -2.587        -13.865
  -2.585        -13.871
  -2.583        -13.878
  -2.581        -13.883
  -2.579        -13.890
  -2.577        -13.896
  -2.574        -13.903
  -2.572        -13.909
  -2.570        -13.915
  -2.568        -13.922
  -2.566        -13.929
  -2.564        -13.935
  -2.561        -13.942
  -2.559        -13.949
  -2.557        -13.956
  -2.555        -13.963
  -2.553        -13.970
  -2.551        -13.977
  -2.548        -13.984
  -2.546        -13.991
  -2.544        -13.999
  -2.542        -14.006
  -2.540        -14.013
  -2.538        -14.021
  -2.535        -14.029
  -2.533        -14.036
  -2.531        -14.044
  -2.529        -14.052
  -2.527        -14.060
  -2.525        -14.068
  -2.522        -14.076
  -2.520        -14.084
  -2.518        -14.092
  -2.516        -14.100
  -2.514        -14.108
  -2.511        -14.117
  -2.509        -14.125
  -2.507        -14.134
  -2.505        -14.142
  -2.503        -14.151
  -2.501        -14.160
  -2.498        -14.168
  -2.496        -14.177
  -2.494        -14.186
  -2.492        -14.195
  -2.490        -14.205
  -2.488        -14.214
  -2.485        -14.223
  -2.483        -14.232
  -2.481        -14.242
  -2.479        -14.251
  -2.477        -14.261
  -2.475        -14.270
  -2.472        -14.280
  -2.470        -14.290
  -2.468        -14.300
  -2.466        -14.310
  -2.464        -14.320
  -2.462        -14.330
  -2.459        -14.341
  -2.457        -14.351
  -2.455        -14.361
  -2.453        -14.372
  -2.451        -14.382
  -2.448        -14.393
  -2.446        -14.404
  -2.444        -14.415
  -2.442        -14.426
  -2.440        -14.437
  -2.438        -14.448
  -2.435        -14.459
  -2.433        -14.470
  -2.431        -14.482
  -2.429        -14.493
  -2.427        -14.505
  -2.425        -14.516
  -2.422        -14.528
  -2.420        -14.540
  -2.418        -14.552
  -2.416        -14.564
  -2.414        -14.576
  -2.412        -14.588
  -2.409        -14.601
  -2.407        -14.613
  -2.405        -14.625
  -2.403        -14.638
  -2.401        -14.651
  -2.398        -14.663
  -2.396        -14.676
  -2.394        -14.689
  -2.392        -14.702
  -2.390        -14.715
  -2.388        -14.728
  -2.386        -14.742
  -2.383        -14.756
  -2.381        -14.769
  -2.379        -14.783
  -2.377        -14.796
  -2.375        -14.810
  -2.372        -14.824
  -2.370        -14.838
  -2.368        -14.852
  -2.366        -14.867
  -2.364        -14.881
  -2.362        -14.895
  -2.359        -14.910
  -2.357        -14.925
  -2.355        -14.939
  -2.353        -14.955
  -2.351        -14.970
  -2.349        -14.985
  -2.346        -15.000
  -2.344        -15.015
  -2.342        -15.031
  -2.340        -15.046
  -2.338        -15.062
  -2.336        -15.077
  -2.333        -15.094
  -2.331        -15.110
  -2.329        -15.125
  -2.327        -15.142
  -2.325        -15.158
  -2.323        -15.175
  -2.320        -15.191
  -2.318        -15.208
  -2.316        -15.225
  -2.314        -15.242
  -2.312        -15.259
  -2.309        -15.276
  -2.307        -15.293
  -2.305        -15.310
  -2.303        -15.328
  -2.301        -15.346
  -2.299        -15.363
  -2.297        -15.381
  -2.294        -15.399
  -2.292        -15.417
  -2.290        -15.435
  -2.288        -15.454
  -2.286        -15.472
  -2.283        -15.491
  -2.281        -15.510
  -2.279        -15.528
  -2.277        -15.547
  -2.275        -15.567
  -2.273        -15.586
  -2.270        -15.605
  -2.268        -15.625
  -2.266        -15.644
  -2.264        -15.664
  -2.262        -15.684
  -2.260        -15.704
  -2.257        -15.724
  -2.255        -15.745
  -2.253        -15.765
  -2.251        -15.786
  -2.249        -15.806
  -2.247        -15.827
  -2.244        -15.848
  -2.242        -15.869
  -2.240        -15.890
  -2.238        -15.912
  -2.236        -15.933
  -2.234        -15.955
  -2.231        -15.977
  -2.229        -15.999
  -2.227        -16.021
  -2.225        -16.043
  -2.223        -16.065
  -2.220        -16.088
  -2.218        -16.111
  -2.216        -16.133
  -2.214        -16.156
  -2.212        -16.180
  -2.210        -16.203
  -2.207        -16.226
  -2.205        -16.250
  -2.203        -16.273
  -2.201        -16.297
  -2.199        -16.321
  -2.197        -16.345
  -2.194        -16.370
  -2.192        -16.394
  -2.190        -16.419
  -2.188        -16.443
  -2.186        -16.468
  -2.184        -16.493
  -2.181        -16.519
  -2.179        -16.544
  -2.177        -16.569
  -2.175        -16.595
  -2.173        -16.621
  -2.171        -16.647
  -2.168        -16.673
  -2.166        -16.700
  -2.164        -16.726
  -2.162        -16.753
  -2.160        -16.779
  -2.158        -16.806
  -2.155        -16.834
  -2.153        -16.861
  -2.151        -16.888
  -2.149        -16.916
  -2.147        -16.944
  -2.145        -16.972
  -2.142        -16.999
  -2.140        -17.028
  -2.138        -17.056
  -2.136        -17.085
  -2.134        -17.113
  -2.131        -17.142
  -2.129        -17.171
  -2.127        -17.200
  -2.125        -17.230
  -2.123        -17.259
  -2.121        -17.289
  -2.118        -17.319
  -2.116        -17.348
  -2.114        -17.379
  -2.112        -17.409
  -2.110        -17.439
  -2.108        -17.470
  -2.105        -17.500
  -2.103        -17.531
  -2.101        -17.562
  -2.099        -17.593
  -2.097        -17.624
  -2.095        -17.655
  -2.092        -17.686
  -2.090        -17.717
  -2.088        -17.749
  -2.086        -17.780
  -2.084        -17.812
  -2.082        -17.843
  -2.079        -17.875
  -2.077        -17.906
  -2.075        -17.938
  -2.073        -17.969
  -2.071        -18.001
  -2.069        -18.032
  -2.066        -18.063
  -2.064        -18.095
  -2.062        -18.125
  -2.060        -18.156
  -2.058        -18.187
  -2.056        -18.217
  -2.053        -18.247
  -2.051        -18.277
  -2.049        -18.307
  -2.047        -18.335
  -2.045        -18.364
  -2.043        -18.392
  -2.040        -18.419
  -2.038        -18.447
  -2.036        -18.473
  -2.034        -18.499
  -2.032        -18.523
  -2.029        -18.548
  -2.027        -18.571
  -2.025        -18.593
  -2.023        -18.615
  -2.021        -18.635
  -2.019        -18.655
  -2.016        -18.674
  -2.014        -18.691
  -2.012        -18.708
  -2.010        -18.723
  -2.008        -18.738
  -2.006        -18.751
  -2.003        -18.764
  -2.001        -18.775
  -1.999        -18.785
  -1.997        -18.795
  -1.995        -18.803
  -1.993        -18.811
  -1.990        -18.817
  -1.988        -18.825
  -1.986        -18.834
  -1.984        -18.843
  -1.982        -18.851
  -1.980        -18.858
  -1.977        -18.865
  -1.975        -18.872
  -1.973        -18.878
  -1.971        -18.884
  -1.969        -18.889
  -1.967        -18.894
  -1.964        -18.899
  -1.962        -18.903
  -1.960        -18.907
  -1.958        -18.911
  -1.956        -18.914
  -1.953        -18.917
  -1.951        -18.920
  -1.949        -18.923
