# log Energy    log Jnu
# (eV)          (ergs/s/cm2/Hz/Sr)
  -6.864        -20.296
  -6.820        -20.209
  -6.777        -20.122
  -6.734        -20.035
  -6.690        -19.948
  -6.647        -19.861
  -6.603        -19.774
  -6.560        -19.688
  -6.516        -19.601
  -6.473        -19.514
  -6.430        -19.427
  -6.386        -19.340
  -6.343        -19.253
  -6.299        -19.167
  -6.256        -19.080
  -6.212        -18.993
  -6.169        -18.906
  -6.126        -18.819
  -6.082        -18.732
  -6.039        -18.646
  -5.995        -18.559
  -5.952        -18.472
  -5.908        -18.385
  -5.865        -18.298
  -5.822        -18.211
  -5.778        -18.125
  -5.735        -18.038
  -5.691        -17.951
  -5.648        -17.864
  -5.605        -17.777
  -5.561        -17.690
  -5.518        -17.604
  -5.474        -17.517
  -5.431        -17.430
  -5.387        -17.343
  -5.344        -17.257
  -5.300        -17.170
  -5.257        -17.083
  -5.214        -16.996
  -5.170        -16.909
  -5.127        -16.823
  -5.083        -16.736
  -5.040        -16.650
  -4.996        -16.563
  -4.953        -16.476
  -4.910        -16.389
  -4.866        -16.303
  -4.823        -16.216
  -4.779        -16.130
  -4.736        -16.043
  -4.692        -15.957
  -4.649        -15.871
  -4.606        -15.784
  -4.562        -15.698
  -4.519        -15.612
  -4.475        -15.525
  -4.432        -15.439
  -4.388        -15.353
  -4.345        -15.267
  -4.302        -15.181
  -4.258        -15.095
  -4.215        -15.010
  -4.171        -14.924
  -4.128        -14.839
  -4.084        -14.754
  -4.041        -14.668
  -3.998        -14.584
  -3.954        -14.499
  -3.911        -14.414
  -3.867        -14.330
  -3.824        -14.246
  -3.781        -14.163
  -3.737        -14.079
  -3.693        -13.997
  -3.650        -13.914
  -3.607        -13.833
  -3.584        -13.794
  -3.582        -13.784
  -3.580        -13.782
  -3.577        -13.779
  -3.575        -13.775
  -3.573        -13.771
  -3.571        -13.767
  -3.569        -13.763
  -3.567        -13.759
  -3.564        -13.754
  -3.562        -13.751
  -3.560        -13.746
  -3.558        -13.742
  -3.556        -13.738
  -3.554        -13.734
  -3.551        -13.730
  -3.549        -13.726
  -3.547        -13.722
  -3.545        -13.718
  -3.543        -13.714
  -3.540        -13.710
  -3.538        -13.706
  -3.536        -13.702
  -3.534        -13.698
  -3.532        -13.694
  -3.530        -13.690
  -3.528        -13.686
  -3.525        -13.682
  -3.523        -13.678
  -3.521        -13.674
  -3.519        -13.670
  -3.517        -13.666
  -3.514        -13.662
  -3.512        -13.658
  -3.510        -13.654
  -3.508        -13.650
  -3.506        -13.646
  -3.504        -13.642
  -3.502        -13.638
  -3.499        -13.634
  -3.497        -13.630
  -3.495        -13.626
  -3.493        -13.622
  -3.491        -13.618
  -3.488        -13.614
  -3.486        -13.610
  -3.484        -13.606
  -3.482        -13.602
  -3.480        -13.598
  -3.477        -13.594
  -3.475        -13.590
  -3.473        -13.586
  -3.471        -13.582
  -3.469        -13.578
  -3.467        -13.574
  -3.464        -13.570
  -3.462        -13.566
  -3.460        -13.562
  -3.458        -13.558
  -3.456        -13.554
  -3.454        -13.550
  -3.451        -13.546
  -3.449        -13.542
  -3.447        -13.538
  -3.445        -13.534
  -3.443        -13.530
  -3.441        -13.526
  -3.438        -13.522
  -3.436        -13.518
  -3.434        -13.514
  -3.432        -13.510
  -3.430        -13.506
  -3.428        -13.502
  -3.425        -13.498
  -3.423        -13.495
  -3.421        -13.491
  -3.419        -13.487
  -3.417        -13.483
  -3.415        -13.479
  -3.412        -13.475
  -3.410        -13.471
  -3.408        -13.467
  -3.406        -13.463
  -3.404        -13.459
  -3.402        -13.455
  -3.399        -13.451
  -3.397        -13.447
  -3.395        -13.444
  -3.393        -13.440
  -3.391        -13.436
  -3.389        -13.432
  -3.386        -13.428
  -3.384        -13.424
  -3.382        -13.420
  -3.380        -13.416
  -3.378        -13.412
  -3.376        -13.408
  -3.373        -13.404
  -3.371        -13.401
  -3.369        -13.397
  -3.367        -13.393
  -3.365        -13.389
  -3.362        -13.385
  -3.360        -13.381
  -3.358        -13.377
  -3.356        -13.373
  -3.354        -13.370
  -3.352        -13.366
  -3.349        -13.362
  -3.347        -13.358
  -3.345        -13.354
  -3.343        -13.350
  -3.341        -13.347
  -3.339        -13.343
  -3.336        -13.339
  -3.334        -13.335
  -3.332        -13.331
  -3.330        -13.327
  -3.328        -13.323
  -3.326        -13.320
  -3.323        -13.316
  -3.321        -13.312
  -3.319        -13.308
  -3.317        -13.304
  -3.315        -13.300
  -3.313        -13.297
  -3.310        -13.293
  -3.308        -13.289
  -3.306        -13.285
  -3.304        -13.281
  -3.302        -13.278
  -3.300        -13.274
  -3.297        -13.270
  -3.295        -13.266
  -3.293        -13.262
  -3.291        -13.259
  -3.289        -13.255
  -3.287        -13.251
  -3.284        -13.247
  -3.282        -13.244
  -3.280        -13.240
  -3.278        -13.236
  -3.276        -13.232
  -3.273        -13.228
  -3.271        -13.225
  -3.269        -13.221
  -3.267        -13.217
  -3.265        -13.214
  -3.263        -13.210
  -3.260        -13.206
  -3.258        -13.202
  -3.256        -13.198
  -3.254        -13.195
  -3.252        -13.191
  -3.250        -13.187
  -3.247        -13.184
  -3.245        -13.180
  -3.243        -13.176
  -3.241        -13.172
  -3.239        -13.169
  -3.237        -13.165
  -3.234        -13.161
  -3.232        -13.158
  -3.230        -13.154
  -3.228        -13.150
  -3.226        -13.146
  -3.224        -13.143
  -3.221        -13.139
  -3.219        -13.135
  -3.217        -13.132
  -3.215        -13.128
  -3.213        -13.124
  -3.211        -13.121
  -3.208        -13.117
  -3.206        -13.114
  -3.204        -13.110
  -3.202        -13.106
  -3.200        -13.103
  -3.197        -13.099
  -3.195        -13.095
  -3.193        -13.092
  -3.191        -13.088
  -3.189        -13.084
  -3.187        -13.081
  -3.184        -13.077
  -3.182        -13.073
  -3.180        -13.070
  -3.178        -13.066
  -3.176        -13.063
  -3.174        -13.059
  -3.171        -13.055
  -3.169        -13.052
  -3.167        -13.048
  -3.165        -13.045
  -3.163        -13.041
  -3.161        -13.038
  -3.158        -13.034
  -3.156        -13.030
  -3.154        -13.027
  -3.152        -13.023
  -3.150        -13.020
  -3.148        -13.016
  -3.145        -13.013
  -3.143        -13.009
  -3.141        -13.006
  -3.139        -13.002
  -3.137        -12.999
  -3.135        -12.995
  -3.132        -12.991
  -3.130        -12.988
  -3.128        -12.984
  -3.126        -12.981
  -3.124        -12.978
  -3.122        -12.974
  -3.119        -12.970
  -3.117        -12.967
  -3.115        -12.964
  -3.113        -12.960
  -3.111        -12.957
  -3.108        -12.953
  -3.106        -12.950
  -3.104        -12.946
  -3.102        -12.943
  -3.100        -12.939
  -3.098        -12.936
  -3.095        -12.932
  -3.093        -12.929
  -3.091        -12.926
  -3.089        -12.922
  -3.087        -12.919
  -3.085        -12.915
  -3.082        -12.912
  -3.080        -12.909
  -3.078        -12.905
  -3.076        -12.902
  -3.074        -12.898
  -3.072        -12.895
  -3.069        -12.892
  -3.067        -12.888
  -3.065        -12.885
  -3.063        -12.881
  -3.061        -12.878
  -3.059        -12.875
  -3.056        -12.871
  -3.054        -12.868
  -3.052        -12.865
  -3.050        -12.861
  -3.048        -12.858
  -3.046        -12.855
  -3.043        -12.852
  -3.041        -12.848
  -3.039        -12.845
  -3.037        -12.842
  -3.035        -12.838
  -3.032        -12.835
  -3.030        -12.832
  -3.028        -12.829
  -3.026        -12.825
  -3.024        -12.822
  -3.022        -12.819
  -3.019        -12.816
  -3.017        -12.812
  -3.015        -12.809
  -3.013        -12.806
  -3.011        -12.803
  -3.009        -12.799
  -3.006        -12.796
  -3.004        -12.793
  -3.002        -12.790
  -3.000        -12.787
  -2.998        -12.784
  -2.996        -12.780
  -2.993        -12.777
  -2.991        -12.774
  -2.989        -12.771
  -2.987        -12.768
  -2.985        -12.765
  -2.983        -12.762
  -2.980        -12.758
  -2.978        -12.755
  -2.976        -12.752
  -2.974        -12.749
  -2.972        -12.746
  -2.970        -12.743
  -2.967        -12.740
  -2.965        -12.737
  -2.963        -12.734
  -2.961        -12.731
  -2.959        -12.727
  -2.956        -12.725
  -2.954        -12.721
  -2.952        -12.718
  -2.950        -12.715
  -2.948        -12.712
  -2.946        -12.709
  -2.944        -12.706
  -2.941        -12.703
  -2.939        -12.700
  -2.937        -12.697
  -2.935        -12.694
  -2.933        -12.691
  -2.930        -12.689
  -2.928        -12.686
  -2.926        -12.683
  -2.924        -12.680
  -2.922        -12.677
  -2.920        -12.674
  -2.917        -12.671
  -2.915        -12.668
  -2.913        -12.665
  -2.911        -12.662
  -2.909        -12.659
  -2.907        -12.657
  -2.904        -12.654
  -2.902        -12.651
  -2.900        -12.648
  -2.898        -12.645
  -2.896        -12.642
  -2.894        -12.640
  -2.891        -12.637
  -2.889        -12.634
  -2.887        -12.631
  -2.885        -12.629
  -2.883        -12.626
  -2.880        -12.623
  -2.878        -12.620
  -2.876        -12.617
  -2.874        -12.615
  -2.872        -12.612
  -2.870        -12.609
  -2.867        -12.607
  -2.865        -12.604
  -2.863        -12.601
  -2.861        -12.598
  -2.859        -12.596
  -2.857        -12.593
  -2.855        -12.591
  -2.852        -12.588
  -2.850        -12.585
  -2.848        -12.583
  -2.846        -12.580
  -2.843        -12.578
  -2.842        -12.575
  -2.839        -12.572
  -2.837        -12.570
  -2.835        -12.567
  -2.833        -12.565
  -2.831        -12.562
  -2.828        -12.560
  -2.826        -12.557
  -2.824        -12.555
  -2.822        -12.552
  -2.820        -12.550
  -2.817        -12.547
  -2.815        -12.545
  -2.813        -12.542
  -2.811        -12.540
  -2.809        -12.537
  -2.807        -12.535
  -2.805        -12.532
  -2.802        -12.531
  -2.800        -12.528
  -2.798        -12.526
  -2.796        -12.523
  -2.794        -12.521
  -2.792        -12.518
  -2.789        -12.516
  -2.787        -12.514
  -2.785        -12.512
  -2.783        -12.509
  -2.781        -12.507
  -2.779        -12.505
  -2.776        -12.503
  -2.774        -12.500
  -2.772        -12.498
  -2.770        -12.496
  -2.767        -12.494
  -2.765        -12.492
  -2.763        -12.490
  -2.761        -12.487
  -2.759        -12.485
  -2.757        -12.483
  -2.754        -12.481
  -2.753        -12.479
  -2.750        -12.477
  -2.748        -12.475
  -2.746        -12.473
  -2.744        -12.471
  -2.741        -12.469
  -2.739        -12.467
  -2.737        -12.464
  -2.735        -12.463
  -2.733        -12.461
  -2.731        -12.459
  -2.729        -12.457
  -2.726        -12.454
  -2.724        -12.453
  -2.722        -12.451
  -2.720        -12.449
  -2.718        -12.447
  -2.716        -12.445
  -2.713        -12.443
  -2.711        -12.442
  -2.709        -12.440
  -2.707        -12.438
  -2.705        -12.436
  -2.703        -12.434
  -2.700        -12.433
  -2.698        -12.431
  -2.696        -12.429
  -2.694        -12.428
  -2.692        -12.426
  -2.689        -12.424
  -2.687        -12.422
  -2.685        -12.421
  -2.683        -12.419
  -2.681        -12.417
  -2.679        -12.416
  -2.677        -12.414
  -2.674        -12.413
  -2.672        -12.412
  -2.670        -12.410
  -2.668        -12.408
  -2.666        -12.407
  -2.663        -12.405
  -2.661        -12.404
  -2.659        -12.402
  -2.657        -12.401
  -2.655        -12.400
  -2.653        -12.398
  -2.650        -12.397
  -2.648        -12.396
  -2.646        -12.394
  -2.644        -12.393
  -2.642        -12.392
  -2.640        -12.390
  -2.637        -12.389
  -2.635        -12.388
  -2.633        -12.387
  -2.631        -12.385
  -2.629        -12.384
  -2.626        -12.383
  -2.624        -12.382
  -2.622        -12.381
  -2.620        -12.380
  -2.618        -12.379
  -2.616        -12.378
  -2.614        -12.376
  -2.611        -12.376
  -2.609        -12.375
  -2.607        -12.373
  -2.605        -12.373
  -2.603        -12.372
  -2.600        -12.371
  -2.598        -12.370
  -2.596        -12.369
  -2.594        -12.368
  -2.592        -12.367
  -2.590        -12.366
  -2.587        -12.366
  -2.585        -12.365
  -2.583        -12.364
  -2.581        -12.363
  -2.579        -12.363
  -2.577        -12.362
  -2.574        -12.361
  -2.572        -12.361
  -2.570        -12.360
  -2.568        -12.360
  -2.566        -12.359
  -2.564        -12.358
  -2.561        -12.358
  -2.559        -12.357
  -2.557        -12.357
  -2.555        -12.356
  -2.553        -12.356
  -2.551        -12.355
  -2.548        -12.355
  -2.546        -12.355
  -2.544        -12.355
  -2.542        -12.354
  -2.540        -12.354
  -2.538        -12.354
  -2.535        -12.354
  -2.533        -12.353
  -2.531        -12.353
  -2.529        -12.353
  -2.527        -12.353
  -2.525        -12.353
  -2.522        -12.353
  -2.520        -12.352
  -2.518        -12.353
  -2.516        -12.353
  -2.514        -12.352
  -2.511        -12.353
  -2.509        -12.353
  -2.507        -12.353
  -2.505        -12.353
  -2.503        -12.353
  -2.501        -12.353
  -2.498        -12.354
  -2.496        -12.354
  -2.494        -12.354
  -2.492        -12.354
  -2.490        -12.355
  -2.488        -12.355
  -2.485        -12.356
  -2.483        -12.356
  -2.481        -12.356
  -2.479        -12.357
  -2.477        -12.357
  -2.475        -12.358
  -2.472        -12.358
  -2.470        -12.359
  -2.468        -12.360
  -2.466        -12.361
  -2.464        -12.361
  -2.462        -12.362
  -2.459        -12.363
  -2.457        -12.363
  -2.455        -12.364
  -2.453        -12.365
  -2.451        -12.366
  -2.448        -12.367
  -2.446        -12.368
  -2.444        -12.369
  -2.442        -12.370
  -2.440        -12.371
  -2.438        -12.372
  -2.435        -12.373
  -2.433        -12.374
  -2.431        -12.376
  -2.429        -12.377
  -2.427        -12.378
  -2.425        -12.379
  -2.422        -12.381
  -2.420        -12.382
  -2.418        -12.383
  -2.416        -12.385
  -2.414        -12.386
  -2.412        -12.388
  -2.409        -12.389
  -2.407        -12.391
  -2.405        -12.393
  -2.403        -12.394
  -2.401        -12.396
  -2.398        -12.398
  -2.396        -12.399
  -2.394        -12.401
  -2.392        -12.403
  -2.390        -12.405
  -2.388        -12.407
  -2.386        -12.409
  -2.383        -12.411
  -2.381        -12.413
  -2.379        -12.415
  -2.377        -12.417
  -2.375        -12.419
  -2.372        -12.421
  -2.370        -12.423
  -2.368        -12.426
  -2.366        -12.428
  -2.364        -12.430
  -2.362        -12.433
  -2.359        -12.435
  -2.357        -12.438
  -2.355        -12.440
  -2.353        -12.443
  -2.351        -12.445
  -2.349        -12.448
  -2.346        -12.451
  -2.344        -12.453
  -2.342        -12.456
  -2.340        -12.459
  -2.338        -12.462
  -2.336        -12.465
  -2.333        -12.468
  -2.331        -12.471
  -2.329        -12.474
  -2.327        -12.477
  -2.325        -12.480
  -2.323        -12.483
  -2.320        -12.486
  -2.318        -12.490
  -2.316        -12.493
  -2.314        -12.496
  -2.312        -12.500
  -2.309        -12.503
  -2.307        -12.507
  -2.305        -12.510
  -2.303        -12.514
  -2.301        -12.517
  -2.299        -12.521
  -2.297        -12.525
  -2.294        -12.529
  -2.292        -12.532
  -2.290        -12.536
  -2.288        -12.540
  -2.286        -12.544
  -2.283        -12.548
  -2.281        -12.552
  -2.279        -12.557
  -2.277        -12.561
  -2.275        -12.565
  -2.273        -12.569
  -2.270        -12.574
  -2.268        -12.578
  -2.266        -12.582
  -2.264        -12.587
  -2.262        -12.591
  -2.260        -12.596
  -2.257        -12.601
  -2.255        -12.606
  -2.253        -12.610
  -2.251        -12.615
  -2.249        -12.620
  -2.247        -12.625
  -2.244        -12.630
  -2.242        -12.635
  -2.240        -12.640
  -2.238        -12.645
  -2.236        -12.651
  -2.234        -12.656
  -2.231        -12.661
  -2.229        -12.667
  -2.227        -12.672
  -2.225        -12.678
  -2.223        -12.683
  -2.220        -12.689
  -2.218        -12.694
  -2.216        -12.700
  -2.214        -12.706
  -2.212        -12.712
  -2.210        -12.718
  -2.207        -12.724
  -2.205        -12.730
  -2.203        -12.736
  -2.201        -12.742
  -2.199        -12.748
  -2.197        -12.755
  -2.194        -12.761
  -2.192        -12.767
  -2.190        -12.774
  -2.188        -12.781
  -2.186        -12.787
  -2.184        -12.794
  -2.181        -12.801
  -2.179        -12.808
  -2.177        -12.814
  -2.175        -12.821
  -2.173        -12.828
  -2.171        -12.836
  -2.168        -12.843
  -2.166        -12.850
  -2.164        -12.857
  -2.162        -12.865
  -2.160        -12.872
  -2.158        -12.880
  -2.155        -12.887
  -2.153        -12.895
  -2.151        -12.902
  -2.149        -12.910
  -2.147        -12.918
  -2.145        -12.926
  -2.142        -12.934
  -2.140        -12.942
  -2.138        -12.950
  -2.136        -12.958
  -2.134        -12.967
  -2.131        -12.975
  -2.129        -12.983
  -2.127        -12.992
  -2.125        -13.001
  -2.123        -13.009
  -2.121        -13.018
  -2.118        -13.027
  -2.116        -13.036
  -2.114        -13.044
  -2.112        -13.053
  -2.110        -13.063
  -2.108        -13.072
  -2.105        -13.081
  -2.103        -13.090
  -2.101        -13.100
  -2.099        -13.109
  -2.097        -13.119
  -2.095        -13.129
  -2.092        -13.138
  -2.090        -13.148
  -2.088        -13.158
  -2.086        -13.168
  -2.084        -13.178
  -2.082        -13.188
  -2.079        -13.199
  -2.077        -13.209
  -2.075        -13.219
  -2.073        -13.230
  -2.071        -13.240
  -2.069        -13.251
  -2.066        -13.262
  -2.064        -13.273
  -2.062        -13.284
  -2.060        -13.295
  -2.058        -13.306
  -2.056        -13.317
  -2.053        -13.328
  -2.051        -13.339
  -2.049        -13.351
  -2.047        -13.362
  -2.045        -13.374
  -2.043        -13.386
  -2.040        -13.398
  -2.038        -13.409
  -2.036        -13.422
  -2.034        -13.434
  -2.032        -13.446
  -2.029        -13.458
  -2.027        -13.471
  -2.025        -13.483
  -2.023        -13.496
  -2.021        -13.508
  -2.019        -13.521
  -2.016        -13.534
  -2.014        -13.547
  -2.012        -13.560
  -2.010        -13.573
  -2.008        -13.586
  -2.006        -13.600
  -2.003        -13.613
  -2.001        -13.627
  -1.999        -13.640
  -1.997        -13.654
  -1.995        -13.668
  -1.993        -13.682
  -1.990        -13.696
  -1.988        -13.710
  -1.986        -13.724
  -1.984        -13.739
  -1.982        -13.753
  -1.980        -13.768
  -1.977        -13.782
  -1.975        -13.797
  -1.973        -13.812
  -1.971        -13.827
  -1.969        -13.842
  -1.967        -13.857
  -1.964        -13.873
  -1.962        -13.888
  -1.960        -13.903
  -1.958        -13.919
  -1.956        -13.935
  -1.953        -13.951
  -1.951        -13.967
  -1.949        -13.983
