# log Energy    log Jnu
# (eV)          (ergs/s/cm2/Hz/Sr)
  -6.864        -20.634
  -6.820        -20.548
  -6.777        -20.461
  -6.734        -20.374
  -6.690        -20.287
  -6.647        -20.200
  -6.603        -20.113
  -6.560        -20.027
  -6.516        -19.940
  -6.473        -19.853
  -6.430        -19.766
  -6.386        -19.679
  -6.343        -19.592
  -6.299        -19.506
  -6.256        -19.419
  -6.212        -19.332
  -6.169        -19.245
  -6.126        -19.158
  -6.082        -19.071
  -6.039        -18.985
  -5.995        -18.898
  -5.952        -18.811
  -5.908        -18.724
  -5.865        -18.638
  -5.822        -18.550
  -5.778        -18.464
  -5.735        -18.377
  -5.691        -18.290
  -5.648        -18.203
  -5.605        -18.117
  -5.561        -18.030
  -5.518        -17.943
  -5.474        -17.857
  -5.431        -17.770
  -5.387        -17.683
  -5.344        -17.596
  -5.300        -17.510
  -5.257        -17.423
  -5.214        -17.337
  -5.170        -17.250
  -5.127        -17.164
  -5.083        -17.077
  -5.040        -16.991
  -4.996        -16.904
  -4.953        -16.818
  -4.910        -16.731
  -4.866        -16.645
  -4.823        -16.559
  -4.779        -16.473
  -4.736        -16.387
  -4.692        -16.301
  -4.649        -16.215
  -4.606        -16.129
  -4.562        -16.043
  -4.519        -15.957
  -4.475        -15.872
  -4.432        -15.787
  -4.388        -15.702
  -4.345        -15.617
  -4.302        -15.532
  -4.258        -15.448
  -4.215        -15.363
  -4.171        -15.280
  -4.128        -15.196
  -4.084        -15.112
  -4.041        -15.030
  -3.998        -14.947
  -3.954        -14.865
  -3.911        -14.783
  -3.867        -14.703
  -3.824        -14.622
  -3.781        -14.543
  -3.737        -14.464
  -3.693        -14.386
  -3.650        -14.309
  -3.607        -14.234
  -3.584        -14.199
  -3.582        -14.189
  -3.580        -14.188
  -3.577        -14.185
  -3.575        -14.181
  -3.573        -14.178
  -3.571        -14.174
  -3.569        -14.170
  -3.567        -14.166
  -3.564        -14.163
  -3.562        -14.159
  -3.560        -14.155
  -3.558        -14.152
  -3.556        -14.148
  -3.554        -14.144
  -3.551        -14.141
  -3.549        -14.137
  -3.547        -14.133
  -3.545        -14.130
  -3.543        -14.126
  -3.540        -14.122
  -3.538        -14.119
  -3.536        -14.115
  -3.534        -14.111
  -3.532        -14.108
  -3.530        -14.104
  -3.528        -14.101
  -3.525        -14.097
  -3.523        -14.093
  -3.521        -14.090
  -3.519        -14.086
  -3.517        -14.083
  -3.514        -14.079
  -3.512        -14.075
  -3.510        -14.072
  -3.508        -14.068
  -3.506        -14.064
  -3.504        -14.061
  -3.502        -14.057
  -3.499        -14.054
  -3.497        -14.050
  -3.495        -14.047
  -3.493        -14.043
  -3.491        -14.040
  -3.488        -14.036
  -3.486        -14.032
  -3.484        -14.029
  -3.482        -14.025
  -3.480        -14.022
  -3.477        -14.018
  -3.475        -14.015
  -3.473        -14.011
  -3.471        -14.008
  -3.469        -14.004
  -3.467        -14.001
  -3.464        -13.997
  -3.462        -13.994
  -3.460        -13.990
  -3.458        -13.987
  -3.456        -13.983
  -3.454        -13.980
  -3.451        -13.976
  -3.449        -13.973
  -3.447        -13.970
  -3.445        -13.966
  -3.443        -13.963
  -3.441        -13.959
  -3.438        -13.956
  -3.436        -13.952
  -3.434        -13.949
  -3.432        -13.945
  -3.430        -13.942
  -3.428        -13.938
  -3.425        -13.935
  -3.423        -13.932
  -3.421        -13.928
  -3.419        -13.925
  -3.417        -13.921
  -3.415        -13.918
  -3.412        -13.915
  -3.410        -13.911
  -3.408        -13.908
  -3.406        -13.904
  -3.404        -13.901
  -3.402        -13.898
  -3.399        -13.894
  -3.397        -13.891
  -3.395        -13.888
  -3.393        -13.884
  -3.391        -13.881
  -3.389        -13.878
  -3.386        -13.874
  -3.384        -13.871
  -3.382        -13.868
  -3.380        -13.865
  -3.378        -13.861
  -3.376        -13.858
  -3.373        -13.855
  -3.371        -13.851
  -3.369        -13.848
  -3.367        -13.845
  -3.365        -13.842
  -3.362        -13.838
  -3.360        -13.835
  -3.358        -13.832
  -3.356        -13.829
  -3.354        -13.825
  -3.352        -13.822
  -3.349        -13.819
  -3.347        -13.816
  -3.345        -13.812
  -3.343        -13.809
  -3.341        -13.806
  -3.339        -13.803
  -3.336        -13.800
  -3.334        -13.797
  -3.332        -13.793
  -3.330        -13.790
  -3.328        -13.787
  -3.326        -13.784
  -3.323        -13.781
  -3.321        -13.778
  -3.319        -13.775
  -3.317        -13.771
  -3.315        -13.768
  -3.313        -13.765
  -3.310        -13.762
  -3.308        -13.759
  -3.306        -13.756
  -3.304        -13.753
  -3.302        -13.750
  -3.300        -13.747
  -3.297        -13.744
  -3.295        -13.741
  -3.293        -13.738
  -3.291        -13.735
  -3.289        -13.732
  -3.287        -13.729
  -3.284        -13.726
  -3.282        -13.723
  -3.280        -13.720
  -3.278        -13.717
  -3.276        -13.714
  -3.273        -13.711
  -3.271        -13.708
  -3.269        -13.705
  -3.267        -13.702
  -3.265        -13.699
  -3.263        -13.696
  -3.260        -13.693
  -3.258        -13.690
  -3.256        -13.687
  -3.254        -13.684
  -3.252        -13.682
  -3.250        -13.679
  -3.247        -13.676
  -3.245        -13.673
  -3.243        -13.670
  -3.241        -13.667
  -3.239        -13.664
  -3.237        -13.662
  -3.234        -13.659
  -3.232        -13.656
  -3.230        -13.653
  -3.228        -13.650
  -3.226        -13.647
  -3.224        -13.645
  -3.221        -13.642
  -3.219        -13.639
  -3.217        -13.636
  -3.215        -13.634
  -3.213        -13.631
  -3.211        -13.628
  -3.208        -13.626
  -3.206        -13.623
  -3.204        -13.620
  -3.202        -13.618
  -3.200        -13.615
  -3.197        -13.612
  -3.195        -13.610
  -3.193        -13.607
  -3.191        -13.604
  -3.189        -13.602
  -3.187        -13.599
  -3.184        -13.596
  -3.182        -13.594
  -3.180        -13.591
  -3.178        -13.589
  -3.176        -13.586
  -3.174        -13.584
  -3.171        -13.581
  -3.169        -13.578
  -3.167        -13.576
  -3.165        -13.573
  -3.163        -13.571
  -3.161        -13.569
  -3.158        -13.566
  -3.156        -13.564
  -3.154        -13.561
  -3.152        -13.559
  -3.150        -13.556
  -3.148        -13.554
  -3.145        -13.551
  -3.143        -13.549
  -3.141        -13.547
  -3.139        -13.544
  -3.137        -13.542
  -3.135        -13.540
  -3.132        -13.537
  -3.130        -13.535
  -3.128        -13.533
  -3.126        -13.530
  -3.124        -13.528
  -3.122        -13.526
  -3.119        -13.523
  -3.117        -13.521
  -3.115        -13.519
  -3.113        -13.517
  -3.111        -13.514
  -3.108        -13.512
  -3.106        -13.510
  -3.104        -13.508
  -3.102        -13.506
  -3.100        -13.504
  -3.098        -13.502
  -3.095        -13.499
  -3.093        -13.497
  -3.091        -13.495
  -3.089        -13.493
  -3.087        -13.491
  -3.085        -13.489
  -3.082        -13.487
  -3.080        -13.485
  -3.078        -13.483
  -3.076        -13.481
  -3.074        -13.479
  -3.072        -13.477
  -3.069        -13.475
  -3.067        -13.473
  -3.065        -13.471
  -3.063        -13.469
  -3.061        -13.467
  -3.059        -13.465
  -3.056        -13.463
  -3.054        -13.462
  -3.052        -13.460
  -3.050        -13.458
  -3.048        -13.456
  -3.046        -13.454
  -3.043        -13.453
  -3.041        -13.451
  -3.039        -13.449
  -3.037        -13.447
  -3.035        -13.445
  -3.032        -13.444
  -3.030        -13.442
  -3.028        -13.440
  -3.026        -13.439
  -3.024        -13.437
  -3.022        -13.436
  -3.019        -13.434
  -3.017        -13.432
  -3.015        -13.431
  -3.013        -13.429
  -3.011        -13.428
  -3.009        -13.426
  -3.006        -13.425
  -3.004        -13.423
  -3.002        -13.422
  -3.000        -13.420
  -2.998        -13.419
  -2.996        -13.417
  -2.993        -13.416
  -2.991        -13.415
  -2.989        -13.413
  -2.987        -13.412
  -2.985        -13.411
  -2.983        -13.409
  -2.980        -13.408
  -2.978        -13.407
  -2.976        -13.406
  -2.974        -13.404
  -2.972        -13.403
  -2.970        -13.402
  -2.967        -13.401
  -2.965        -13.400
  -2.963        -13.398
  -2.961        -13.397
  -2.959        -13.396
  -2.956        -13.395
  -2.954        -13.394
  -2.952        -13.393
  -2.950        -13.392
  -2.948        -13.391
  -2.946        -13.390
  -2.944        -13.389
  -2.941        -13.388
  -2.939        -13.387
  -2.937        -13.386
  -2.935        -13.385
  -2.933        -13.384
  -2.930        -13.384
  -2.928        -13.383
  -2.926        -13.382
  -2.924        -13.381
  -2.922        -13.381
  -2.920        -13.380
  -2.917        -13.379
  -2.915        -13.378
  -2.913        -13.378
  -2.911        -13.377
  -2.909        -13.376
  -2.907        -13.376
  -2.904        -13.375
  -2.902        -13.375
  -2.900        -13.374
  -2.898        -13.374
  -2.896        -13.373
  -2.894        -13.373
  -2.891        -13.372
  -2.889        -13.372
  -2.887        -13.372
  -2.885        -13.371
  -2.883        -13.371
  -2.880        -13.371
  -2.878        -13.370
  -2.876        -13.370
  -2.874        -13.370
  -2.872        -13.370
  -2.870        -13.369
  -2.867        -13.370
  -2.865        -13.369
  -2.863        -13.369
  -2.861        -13.369
  -2.859        -13.369
  -2.857        -13.369
  -2.855        -13.369
  -2.852        -13.369
  -2.850        -13.369
  -2.848        -13.369
  -2.846        -13.369
  -2.843        -13.370
  -2.842        -13.370
  -2.839        -13.370
  -2.837        -13.370
  -2.835        -13.370
  -2.833        -13.371
  -2.831        -13.371
  -2.828        -13.371
  -2.826        -13.372
  -2.824        -13.372
  -2.822        -13.372
  -2.820        -13.373
  -2.817        -13.373
  -2.815        -13.374
  -2.813        -13.375
  -2.811        -13.375
  -2.809        -13.375
  -2.807        -13.376
  -2.805        -13.377
  -2.802        -13.378
  -2.800        -13.379
  -2.798        -13.379
  -2.796        -13.380
  -2.794        -13.381
  -2.792        -13.381
  -2.789        -13.382
  -2.787        -13.384
  -2.785        -13.384
  -2.783        -13.385
  -2.781        -13.387
  -2.779        -13.387
  -2.776        -13.389
  -2.774        -13.390
  -2.772        -13.391
  -2.770        -13.392
  -2.767        -13.393
  -2.765        -13.395
  -2.763        -13.396
  -2.761        -13.397
  -2.759        -13.398
  -2.757        -13.400
  -2.754        -13.401
  -2.753        -13.403
  -2.750        -13.404
  -2.748        -13.406
  -2.746        -13.407
  -2.744        -13.409
  -2.741        -13.411
  -2.739        -13.413
  -2.737        -13.414
  -2.735        -13.416
  -2.733        -13.418
  -2.731        -13.420
  -2.729        -13.421
  -2.726        -13.423
  -2.724        -13.425
  -2.722        -13.427
  -2.720        -13.429
  -2.718        -13.431
  -2.716        -13.434
  -2.713        -13.436
  -2.711        -13.438
  -2.709        -13.440
  -2.707        -13.442
  -2.705        -13.444
  -2.703        -13.447
  -2.700        -13.449
  -2.698        -13.452
  -2.696        -13.454
  -2.694        -13.457
  -2.692        -13.459
  -2.689        -13.462
  -2.687        -13.464
  -2.685        -13.467
  -2.683        -13.470
  -2.681        -13.473
  -2.679        -13.476
  -2.677        -13.478
  -2.674        -13.481
  -2.672        -13.484
  -2.670        -13.487
  -2.668        -13.490
  -2.666        -13.493
  -2.663        -13.497
  -2.661        -13.500
  -2.659        -13.503
  -2.657        -13.506
  -2.655        -13.509
  -2.653        -13.513
  -2.650        -13.516
  -2.648        -13.520
  -2.646        -13.523
  -2.644        -13.527
  -2.642        -13.530
  -2.640        -13.534
  -2.637        -13.538
  -2.635        -13.542
  -2.633        -13.545
  -2.631        -13.549
  -2.629        -13.553
  -2.626        -13.557
  -2.624        -13.561
  -2.622        -13.565
  -2.620        -13.569
  -2.618        -13.573
  -2.616        -13.577
  -2.614        -13.582
  -2.611        -13.586
  -2.609        -13.590
  -2.607        -13.595
  -2.605        -13.599
  -2.603        -13.604
  -2.600        -13.608
  -2.598        -13.613
  -2.596        -13.618
  -2.594        -13.622
  -2.592        -13.627
  -2.590        -13.632
  -2.587        -13.637
  -2.585        -13.642
  -2.583        -13.647
  -2.581        -13.652
  -2.579        -13.657
  -2.577        -13.662
  -2.574        -13.668
  -2.572        -13.673
  -2.570        -13.678
  -2.568        -13.683
  -2.566        -13.689
  -2.564        -13.694
  -2.561        -13.700
  -2.559        -13.706
  -2.557        -13.711
  -2.555        -13.717
  -2.553        -13.723
  -2.551        -13.729
  -2.548        -13.735
  -2.546        -13.741
  -2.544        -13.747
  -2.542        -13.753
  -2.540        -13.759
  -2.538        -13.765
  -2.535        -13.772
  -2.533        -13.778
  -2.531        -13.784
  -2.529        -13.791
  -2.527        -13.797
  -2.525        -13.804
  -2.522        -13.811
  -2.520        -13.818
  -2.518        -13.825
  -2.516        -13.831
  -2.514        -13.838
  -2.511        -13.845
  -2.509        -13.852
  -2.507        -13.860
  -2.505        -13.867
  -2.503        -13.874
  -2.501        -13.881
  -2.498        -13.889
  -2.496        -13.897
  -2.494        -13.904
  -2.492        -13.912
  -2.490        -13.919
  -2.488        -13.927
  -2.485        -13.935
  -2.483        -13.943
  -2.481        -13.951
  -2.479        -13.959
  -2.477        -13.967
  -2.475        -13.975
  -2.472        -13.984
  -2.470        -13.992
  -2.468        -14.000
  -2.466        -14.009
  -2.464        -14.018
  -2.462        -14.026
  -2.459        -14.035
  -2.457        -14.044
  -2.455        -14.053
  -2.453        -14.062
  -2.451        -14.071
  -2.448        -14.080
  -2.446        -14.089
  -2.444        -14.098
  -2.442        -14.108
  -2.440        -14.117
  -2.438        -14.126
  -2.435        -14.136
  -2.433        -14.146
  -2.431        -14.156
  -2.429        -14.165
  -2.427        -14.175
  -2.425        -14.185
  -2.422        -14.195
  -2.420        -14.206
  -2.418        -14.216
  -2.416        -14.226
  -2.414        -14.236
  -2.412        -14.247
  -2.409        -14.258
  -2.407        -14.268
  -2.405        -14.279
  -2.403        -14.290
  -2.401        -14.301
  -2.398        -14.312
  -2.396        -14.323
  -2.394        -14.334
  -2.392        -14.345
  -2.390        -14.357
  -2.388        -14.368
  -2.386        -14.380
  -2.383        -14.391
  -2.381        -14.403
  -2.379        -14.415
  -2.377        -14.427
  -2.375        -14.439
  -2.372        -14.451
  -2.370        -14.463
  -2.368        -14.475
  -2.366        -14.488
  -2.364        -14.500
  -2.362        -14.513
  -2.359        -14.526
  -2.357        -14.538
  -2.355        -14.551
  -2.353        -14.564
  -2.351        -14.577
  -2.349        -14.590
  -2.346        -14.604
  -2.344        -14.617
  -2.342        -14.630
  -2.340        -14.644
  -2.338        -14.657
  -2.336        -14.671
  -2.333        -14.685
  -2.331        -14.699
  -2.329        -14.713
  -2.327        -14.727
  -2.325        -14.742
  -2.323        -14.756
  -2.320        -14.771
  -2.318        -14.785
  -2.316        -14.800
  -2.314        -14.814
  -2.312        -14.829
  -2.309        -14.844
  -2.307        -14.859
  -2.305        -14.875
  -2.303        -14.890
  -2.301        -14.905
  -2.299        -14.921
  -2.297        -14.936
  -2.294        -14.952
  -2.292        -14.968
  -2.290        -14.984
  -2.288        -15.000
  -2.286        -15.017
  -2.283        -15.033
  -2.281        -15.049
  -2.279        -15.066
  -2.277        -15.082
  -2.275        -15.099
  -2.273        -15.116
  -2.270        -15.133
  -2.268        -15.150
  -2.266        -15.168
  -2.264        -15.185
  -2.262        -15.203
  -2.260        -15.220
  -2.257        -15.238
  -2.255        -15.256
  -2.253        -15.274
  -2.251        -15.292
  -2.249        -15.310
  -2.247        -15.328
  -2.244        -15.347
  -2.242        -15.366
  -2.240        -15.384
  -2.238        -15.403
  -2.236        -15.422
  -2.234        -15.441
  -2.231        -15.460
  -2.229        -15.480
  -2.227        -15.499
  -2.225        -15.519
  -2.223        -15.539
  -2.220        -15.559
  -2.218        -15.579
  -2.216        -15.599
  -2.214        -15.619
  -2.212        -15.639
  -2.210        -15.660
  -2.207        -15.681
  -2.205        -15.701
  -2.203        -15.722
  -2.201        -15.744
  -2.199        -15.765
  -2.197        -15.786
  -2.194        -15.808
  -2.192        -15.829
  -2.190        -15.851
  -2.188        -15.873
  -2.186        -15.895
  -2.184        -15.917
  -2.181        -15.940
  -2.179        -15.962
  -2.177        -15.985
  -2.175        -16.008
  -2.173        -16.031
  -2.171        -16.054
  -2.168        -16.077
  -2.166        -16.100
  -2.164        -16.124
  -2.162        -16.148
  -2.160        -16.171
  -2.158        -16.195
  -2.155        -16.219
  -2.153        -16.244
  -2.151        -16.268
  -2.149        -16.293
  -2.147        -16.318
  -2.145        -16.342
  -2.142        -16.367
  -2.140        -16.393
  -2.138        -16.418
  -2.136        -16.444
  -2.134        -16.469
  -2.131        -16.495
  -2.129        -16.521
  -2.127        -16.547
  -2.125        -16.573
  -2.123        -16.600
  -2.121        -16.627
  -2.118        -16.653
  -2.116        -16.680
  -2.114        -16.707
  -2.112        -16.734
  -2.110        -16.762
  -2.108        -16.790
  -2.105        -16.817
  -2.103        -16.845
  -2.101        -16.873
  -2.099        -16.901
  -2.097        -16.930
  -2.095        -16.958
  -2.092        -16.987
  -2.090        -17.016
  -2.088        -17.045
  -2.086        -17.074
  -2.084        -17.103
  -2.082        -17.133
  -2.079        -17.162
  -2.077        -17.192
  -2.075        -17.221
  -2.073        -17.251
  -2.071        -17.282
  -2.069        -17.312
  -2.066        -17.342
  -2.064        -17.373
  -2.062        -17.403
  -2.060        -17.434
  -2.058        -17.465
  -2.056        -17.496
  -2.053        -17.527
  -2.051        -17.558
  -2.049        -17.589
  -2.047        -17.620
  -2.045        -17.651
  -2.043        -17.682
  -2.040        -17.714
  -2.038        -17.745
  -2.036        -17.776
  -2.034        -17.807
  -2.032        -17.839
  -2.029        -17.870
  -2.027        -17.901
  -2.025        -17.931
  -2.023        -17.962
  -2.021        -17.993
  -2.019        -18.023
  -2.016        -18.053
  -2.014        -18.083
  -2.012        -18.112
  -2.010        -18.141
  -2.008        -18.170
  -2.006        -18.198
  -2.003        -18.225
  -2.001        -18.252
  -1.999        -18.279
  -1.997        -18.305
  -1.995        -18.330
  -1.993        -18.355
  -1.990        -18.378
  -1.988        -18.402
  -1.986        -18.426
  -1.984        -18.450
  -1.982        -18.472
  -1.980        -18.495
  -1.977        -18.516
  -1.975        -18.537
  -1.973        -18.556
  -1.971        -18.575
  -1.969        -18.594
  -1.967        -18.611
  -1.964        -18.628
  -1.962        -18.644
  -1.960        -18.659
  -1.958        -18.673
  -1.956        -18.687
  -1.953        -18.699
  -1.951        -18.711
  -1.949        -18.723
