# log Energy    log Jnu
# (eV)          (ergs/s/cm2/Hz/Sr)
  -6.864        -20.199
  -6.820        -20.112
  -6.777        -20.025
  -6.734        -19.938
  -6.690        -19.851
  -6.647        -19.764
  -6.603        -19.678
  -6.560        -19.591
  -6.516        -19.504
  -6.473        -19.417
  -6.430        -19.330
  -6.386        -19.243
  -6.343        -19.157
  -6.299        -19.070
  -6.256        -18.983
  -6.212        -18.896
  -6.169        -18.809
  -6.126        -18.722
  -6.082        -18.635
  -6.039        -18.549
  -5.995        -18.462
  -5.952        -18.375
  -5.908        -18.288
  -5.865        -18.201
  -5.822        -18.114
  -5.778        -18.028
  -5.735        -17.941
  -5.691        -17.854
  -5.648        -17.767
  -5.605        -17.680
  -5.561        -17.594
  -5.518        -17.507
  -5.474        -17.420
  -5.431        -17.333
  -5.387        -17.246
  -5.344        -17.160
  -5.300        -17.073
  -5.257        -16.986
  -5.214        -16.899
  -5.170        -16.812
  -5.127        -16.726
  -5.083        -16.639
  -5.040        -16.552
  -4.996        -16.465
  -4.953        -16.379
  -4.910        -16.292
  -4.866        -16.206
  -4.823        -16.119
  -4.779        -16.032
  -4.736        -15.946
  -4.692        -15.859
  -4.649        -15.773
  -4.606        -15.686
  -4.562        -15.600
  -4.519        -15.513
  -4.475        -15.427
  -4.432        -15.341
  -4.388        -15.255
  -4.345        -15.168
  -4.302        -15.082
  -4.258        -14.996
  -4.215        -14.910
  -4.171        -14.825
  -4.128        -14.739
  -4.084        -14.653
  -4.041        -14.568
  -3.998        -14.482
  -3.954        -14.397
  -3.911        -14.313
  -3.867        -14.228
  -3.824        -14.143
  -3.781        -14.059
  -3.737        -13.975
  -3.693        -13.891
  -3.650        -13.808
  -3.607        -13.726
  -3.584        -13.686
  -3.582        -13.676
  -3.580        -13.674
  -3.577        -13.671
  -3.575        -13.667
  -3.573        -13.663
  -3.571        -13.659
  -3.569        -13.654
  -3.567        -13.650
  -3.564        -13.646
  -3.562        -13.642
  -3.560        -13.638
  -3.558        -13.634
  -3.556        -13.630
  -3.554        -13.626
  -3.551        -13.622
  -3.549        -13.617
  -3.547        -13.613
  -3.545        -13.609
  -3.543        -13.605
  -3.540        -13.601
  -3.538        -13.597
  -3.536        -13.593
  -3.534        -13.589
  -3.532        -13.585
  -3.530        -13.581
  -3.528        -13.577
  -3.525        -13.572
  -3.523        -13.568
  -3.521        -13.564
  -3.519        -13.560
  -3.517        -13.556
  -3.514        -13.552
  -3.512        -13.548
  -3.510        -13.544
  -3.508        -13.540
  -3.506        -13.536
  -3.504        -13.532
  -3.502        -13.527
  -3.499        -13.523
  -3.497        -13.519
  -3.495        -13.515
  -3.493        -13.511
  -3.491        -13.507
  -3.488        -13.503
  -3.486        -13.499
  -3.484        -13.495
  -3.482        -13.491
  -3.480        -13.487
  -3.477        -13.483
  -3.475        -13.479
  -3.473        -13.474
  -3.471        -13.471
  -3.469        -13.466
  -3.467        -13.462
  -3.464        -13.458
  -3.462        -13.454
  -3.460        -13.450
  -3.458        -13.446
  -3.456        -13.442
  -3.454        -13.438
  -3.451        -13.434
  -3.449        -13.430
  -3.447        -13.426
  -3.445        -13.422
  -3.443        -13.418
  -3.441        -13.414
  -3.438        -13.410
  -3.436        -13.406
  -3.434        -13.402
  -3.432        -13.398
  -3.430        -13.394
  -3.428        -13.390
  -3.425        -13.386
  -3.423        -13.382
  -3.421        -13.378
  -3.419        -13.374
  -3.417        -13.369
  -3.415        -13.366
  -3.412        -13.362
  -3.410        -13.358
  -3.408        -13.354
  -3.406        -13.349
  -3.404        -13.345
  -3.402        -13.341
  -3.399        -13.338
  -3.397        -13.333
  -3.395        -13.329
  -3.393        -13.325
  -3.391        -13.322
  -3.389        -13.317
  -3.386        -13.313
  -3.384        -13.309
  -3.382        -13.305
  -3.380        -13.302
  -3.378        -13.298
  -3.376        -13.294
  -3.373        -13.289
  -3.371        -13.285
  -3.369        -13.282
  -3.367        -13.278
  -3.365        -13.274
  -3.362        -13.270
  -3.360        -13.266
  -3.358        -13.262
  -3.356        -13.258
  -3.354        -13.254
  -3.352        -13.250
  -3.349        -13.246
  -3.347        -13.242
  -3.345        -13.238
  -3.343        -13.234
  -3.341        -13.230
  -3.339        -13.226
  -3.336        -13.222
  -3.334        -13.218
  -3.332        -13.214
  -3.330        -13.210
  -3.328        -13.206
  -3.326        -13.202
  -3.323        -13.198
  -3.321        -13.194
  -3.319        -13.191
  -3.317        -13.187
  -3.315        -13.183
  -3.313        -13.179
  -3.310        -13.175
  -3.308        -13.171
  -3.306        -13.167
  -3.304        -13.163
  -3.302        -13.159
  -3.300        -13.155
  -3.297        -13.152
  -3.295        -13.147
  -3.293        -13.144
  -3.291        -13.139
  -3.289        -13.136
  -3.287        -13.132
  -3.284        -13.128
  -3.282        -13.124
  -3.280        -13.120
  -3.278        -13.116
  -3.276        -13.113
  -3.273        -13.108
  -3.271        -13.105
  -3.269        -13.101
  -3.267        -13.097
  -3.265        -13.093
  -3.263        -13.089
  -3.260        -13.085
  -3.258        -13.081
  -3.256        -13.078
  -3.254        -13.074
  -3.252        -13.070
  -3.250        -13.066
  -3.247        -13.062
  -3.245        -13.058
  -3.243        -13.054
  -3.241        -13.051
  -3.239        -13.047
  -3.237        -13.043
  -3.234        -13.039
  -3.232        -13.035
  -3.230        -13.031
  -3.228        -13.027
  -3.226        -13.024
  -3.224        -13.020
  -3.221        -13.016
  -3.219        -13.012
  -3.217        -13.008
  -3.215        -13.005
  -3.213        -13.001
  -3.211        -12.997
  -3.208        -12.993
  -3.206        -12.989
  -3.204        -12.986
  -3.202        -12.982
  -3.200        -12.978
  -3.197        -12.974
  -3.195        -12.970
  -3.193        -12.966
  -3.191        -12.963
  -3.189        -12.959
  -3.187        -12.955
  -3.184        -12.951
  -3.182        -12.948
  -3.180        -12.944
  -3.178        -12.940
  -3.176        -12.936
  -3.174        -12.933
  -3.171        -12.929
  -3.169        -12.925
  -3.167        -12.921
  -3.165        -12.918
  -3.163        -12.914
  -3.161        -12.910
  -3.158        -12.906
  -3.156        -12.903
  -3.154        -12.899
  -3.152        -12.895
  -3.150        -12.892
  -3.148        -12.888
  -3.145        -12.884
  -3.143        -12.880
  -3.141        -12.877
  -3.139        -12.873
  -3.137        -12.869
  -3.135        -12.866
  -3.132        -12.862
  -3.130        -12.858
  -3.128        -12.854
  -3.126        -12.851
  -3.124        -12.847
  -3.122        -12.843
  -3.119        -12.840
  -3.117        -12.836
  -3.115        -12.832
  -3.113        -12.829
  -3.111        -12.825
  -3.108        -12.821
  -3.106        -12.818
  -3.104        -12.814
  -3.102        -12.811
  -3.100        -12.807
  -3.098        -12.803
  -3.095        -12.800
  -3.093        -12.796
  -3.091        -12.792
  -3.089        -12.789
  -3.087        -12.785
  -3.085        -12.781
  -3.082        -12.778
  -3.080        -12.774
  -3.078        -12.771
  -3.076        -12.767
  -3.074        -12.763
  -3.072        -12.760
  -3.069        -12.756
  -3.067        -12.753
  -3.065        -12.749
  -3.063        -12.746
  -3.061        -12.742
  -3.059        -12.738
  -3.056        -12.735
  -3.054        -12.731
  -3.052        -12.728
  -3.050        -12.724
  -3.048        -12.721
  -3.046        -12.717
  -3.043        -12.714
  -3.041        -12.710
  -3.039        -12.707
  -3.037        -12.703
  -3.035        -12.699
  -3.032        -12.696
  -3.030        -12.692
  -3.028        -12.689
  -3.026        -12.685
  -3.024        -12.682
  -3.022        -12.678
  -3.019        -12.675
  -3.017        -12.672
  -3.015        -12.668
  -3.013        -12.665
  -3.011        -12.661
  -3.009        -12.658
  -3.006        -12.654
  -3.004        -12.651
  -3.002        -12.647
  -3.000        -12.644
  -2.998        -12.640
  -2.996        -12.637
  -2.993        -12.634
  -2.991        -12.630
  -2.989        -12.627
  -2.987        -12.623
  -2.985        -12.620
  -2.983        -12.617
  -2.980        -12.613
  -2.978        -12.610
  -2.976        -12.606
  -2.974        -12.603
  -2.972        -12.600
  -2.970        -12.596
  -2.967        -12.593
  -2.965        -12.590
  -2.963        -12.586
  -2.961        -12.583
  -2.959        -12.580
  -2.956        -12.576
  -2.954        -12.573
  -2.952        -12.570
  -2.950        -12.566
  -2.948        -12.563
  -2.946        -12.560
  -2.944        -12.556
  -2.941        -12.553
  -2.939        -12.550
  -2.937        -12.546
  -2.935        -12.543
  -2.933        -12.540
  -2.930        -12.537
  -2.928        -12.534
  -2.926        -12.530
  -2.924        -12.527
  -2.922        -12.524
  -2.920        -12.521
  -2.917        -12.517
  -2.915        -12.514
  -2.913        -12.511
  -2.911        -12.508
  -2.909        -12.504
  -2.907        -12.501
  -2.904        -12.498
  -2.902        -12.495
  -2.900        -12.492
  -2.898        -12.489
  -2.896        -12.485
  -2.894        -12.482
  -2.891        -12.479
  -2.889        -12.476
  -2.887        -12.473
  -2.885        -12.470
  -2.883        -12.467
  -2.880        -12.463
  -2.878        -12.460
  -2.876        -12.457
  -2.874        -12.454
  -2.872        -12.451
  -2.870        -12.448
  -2.867        -12.445
  -2.865        -12.442
  -2.863        -12.439
  -2.861        -12.435
  -2.859        -12.433
  -2.857        -12.430
  -2.855        -12.426
  -2.852        -12.424
  -2.850        -12.421
  -2.848        -12.418
  -2.846        -12.414
  -2.843        -12.412
  -2.842        -12.408
  -2.839        -12.406
  -2.837        -12.402
  -2.835        -12.400
  -2.833        -12.397
  -2.831        -12.394
  -2.828        -12.391
  -2.826        -12.388
  -2.824        -12.385
  -2.822        -12.382
  -2.820        -12.379
  -2.817        -12.376
  -2.815        -12.374
  -2.813        -12.371
  -2.811        -12.368
  -2.809        -12.365
  -2.807        -12.362
  -2.805        -12.359
  -2.802        -12.356
  -2.800        -12.354
  -2.798        -12.351
  -2.796        -12.348
  -2.794        -12.345
  -2.792        -12.342
  -2.789        -12.339
  -2.787        -12.337
  -2.785        -12.334
  -2.783        -12.331
  -2.781        -12.328
  -2.779        -12.326
  -2.776        -12.323
  -2.774        -12.320
  -2.772        -12.318
  -2.770        -12.315
  -2.767        -12.312
  -2.765        -12.309
  -2.763        -12.307
  -2.761        -12.304
  -2.759        -12.301
  -2.757        -12.299
  -2.754        -12.296
  -2.753        -12.294
  -2.750        -12.291
  -2.748        -12.289
  -2.746        -12.286
  -2.744        -12.283
  -2.741        -12.281
  -2.739        -12.278
  -2.737        -12.276
  -2.735        -12.273
  -2.733        -12.271
  -2.731        -12.268
  -2.729        -12.266
  -2.726        -12.263
  -2.724        -12.261
  -2.722        -12.258
  -2.720        -12.256
  -2.718        -12.253
  -2.716        -12.251
  -2.713        -12.248
  -2.711        -12.246
  -2.709        -12.243
  -2.707        -12.241
  -2.705        -12.239
  -2.703        -12.236
  -2.700        -12.234
  -2.698        -12.231
  -2.696        -12.229
  -2.694        -12.227
  -2.692        -12.225
  -2.689        -12.223
  -2.687        -12.220
  -2.685        -12.218
  -2.683        -12.216
  -2.681        -12.213
  -2.679        -12.211
  -2.677        -12.209
  -2.674        -12.207
  -2.672        -12.205
  -2.670        -12.202
  -2.668        -12.200
  -2.666        -12.198
  -2.663        -12.196
  -2.661        -12.194
  -2.659        -12.191
  -2.657        -12.189
  -2.655        -12.187
  -2.653        -12.185
  -2.650        -12.183
  -2.648        -12.181
  -2.646        -12.179
  -2.644        -12.177
  -2.642        -12.175
  -2.640        -12.173
  -2.637        -12.171
  -2.635        -12.169
  -2.633        -12.167
  -2.631        -12.165
  -2.629        -12.163
  -2.626        -12.161
  -2.624        -12.159
  -2.622        -12.158
  -2.620        -12.156
  -2.618        -12.154
  -2.616        -12.152
  -2.614        -12.150
  -2.611        -12.148
  -2.609        -12.147
  -2.607        -12.145
  -2.605        -12.143
  -2.603        -12.141
  -2.600        -12.140
  -2.598        -12.138
  -2.596        -12.136
  -2.594        -12.134
  -2.592        -12.133
  -2.590        -12.131
  -2.587        -12.129
  -2.585        -12.128
  -2.583        -12.126
  -2.581        -12.125
  -2.579        -12.123
  -2.577        -12.122
  -2.574        -12.120
  -2.572        -12.119
  -2.570        -12.117
  -2.568        -12.116
  -2.566        -12.114
  -2.564        -12.113
  -2.561        -12.111
  -2.559        -12.110
  -2.557        -12.108
  -2.555        -12.107
  -2.553        -12.106
  -2.551        -12.104
  -2.548        -12.103
  -2.546        -12.102
  -2.544        -12.100
  -2.542        -12.099
  -2.540        -12.098
  -2.538        -12.097
  -2.535        -12.096
  -2.533        -12.094
  -2.531        -12.093
  -2.529        -12.092
  -2.527        -12.091
  -2.525        -12.090
  -2.522        -12.089
  -2.520        -12.087
  -2.518        -12.086
  -2.516        -12.085
  -2.514        -12.084
  -2.511        -12.083
  -2.509        -12.082
  -2.507        -12.081
  -2.505        -12.080
  -2.503        -12.080
  -2.501        -12.079
  -2.498        -12.078
  -2.496        -12.077
  -2.494        -12.076
  -2.492        -12.075
  -2.490        -12.075
  -2.488        -12.074
  -2.485        -12.073
  -2.483        -12.072
  -2.481        -12.072
  -2.479        -12.071
  -2.477        -12.070
  -2.475        -12.070
  -2.472        -12.069
  -2.470        -12.068
  -2.468        -12.068
  -2.466        -12.068
  -2.464        -12.067
  -2.462        -12.066
  -2.459        -12.066
  -2.457        -12.066
  -2.455        -12.065
  -2.453        -12.065
  -2.451        -12.064
  -2.448        -12.064
  -2.446        -12.064
  -2.444        -12.063
  -2.442        -12.063
  -2.440        -12.063
  -2.438        -12.063
  -2.435        -12.062
  -2.433        -12.062
  -2.431        -12.062
  -2.429        -12.062
  -2.427        -12.062
  -2.425        -12.062
  -2.422        -12.062
  -2.420        -12.062
  -2.418        -12.062
  -2.416        -12.062
  -2.414        -12.062
  -2.412        -12.062
  -2.409        -12.062
  -2.407        -12.062
  -2.405        -12.063
  -2.403        -12.063
  -2.401        -12.063
  -2.398        -12.063
  -2.396        -12.063
  -2.394        -12.064
  -2.392        -12.064
  -2.390        -12.065
  -2.388        -12.065
  -2.386        -12.065
  -2.383        -12.066
  -2.381        -12.066
  -2.379        -12.067
  -2.377        -12.068
  -2.375        -12.068
  -2.372        -12.069
  -2.370        -12.069
  -2.368        -12.070
  -2.366        -12.071
  -2.364        -12.072
  -2.362        -12.072
  -2.359        -12.073
  -2.357        -12.074
  -2.355        -12.075
  -2.353        -12.076
  -2.351        -12.077
  -2.349        -12.078
  -2.346        -12.079
  -2.344        -12.080
  -2.342        -12.081
  -2.340        -12.082
  -2.338        -12.083
  -2.336        -12.084
  -2.333        -12.085
  -2.331        -12.087
  -2.329        -12.088
  -2.327        -12.089
  -2.325        -12.091
  -2.323        -12.092
  -2.320        -12.093
  -2.318        -12.094
  -2.316        -12.096
  -2.314        -12.098
  -2.312        -12.099
  -2.309        -12.101
  -2.307        -12.102
  -2.305        -12.104
  -2.303        -12.106
  -2.301        -12.107
  -2.299        -12.109
  -2.297        -12.111
  -2.294        -12.113
  -2.292        -12.115
  -2.290        -12.117
  -2.288        -12.119
  -2.286        -12.121
  -2.283        -12.123
  -2.281        -12.125
  -2.279        -12.127
  -2.277        -12.129
  -2.275        -12.131
  -2.273        -12.133
  -2.270        -12.136
  -2.268        -12.138
  -2.266        -12.141
  -2.264        -12.143
  -2.262        -12.145
  -2.260        -12.148
  -2.257        -12.150
  -2.255        -12.153
  -2.253        -12.155
  -2.251        -12.158
  -2.249        -12.161
  -2.247        -12.163
  -2.244        -12.166
  -2.242        -12.169
  -2.240        -12.172
  -2.238        -12.175
  -2.236        -12.178
  -2.234        -12.181
  -2.231        -12.184
  -2.229        -12.187
  -2.227        -12.190
  -2.225        -12.193
  -2.223        -12.197
  -2.220        -12.200
  -2.218        -12.203
  -2.216        -12.207
  -2.214        -12.210
  -2.212        -12.214
  -2.210        -12.217
  -2.207        -12.221
  -2.205        -12.224
  -2.203        -12.228
  -2.201        -12.232
  -2.199        -12.235
  -2.197        -12.239
  -2.194        -12.243
  -2.192        -12.247
  -2.190        -12.251
  -2.188        -12.255
  -2.186        -12.259
  -2.184        -12.263
  -2.181        -12.267
  -2.179        -12.272
  -2.177        -12.276
  -2.175        -12.280
  -2.173        -12.285
  -2.171        -12.289
  -2.168        -12.294
  -2.166        -12.298
  -2.164        -12.302
  -2.162        -12.307
  -2.160        -12.312
  -2.158        -12.317
  -2.155        -12.321
  -2.153        -12.326
  -2.151        -12.331
  -2.149        -12.336
  -2.147        -12.341
  -2.145        -12.346
  -2.142        -12.351
  -2.140        -12.356
  -2.138        -12.362
  -2.136        -12.367
  -2.134        -12.372
  -2.131        -12.378
  -2.129        -12.383
  -2.127        -12.389
  -2.125        -12.394
  -2.123        -12.400
  -2.121        -12.406
  -2.118        -12.412
  -2.116        -12.417
  -2.114        -12.423
  -2.112        -12.429
  -2.110        -12.435
  -2.108        -12.441
  -2.105        -12.448
  -2.103        -12.454
  -2.101        -12.460
  -2.099        -12.466
  -2.097        -12.473
  -2.095        -12.479
  -2.092        -12.486
  -2.090        -12.492
  -2.088        -12.499
  -2.086        -12.506
  -2.084        -12.512
  -2.082        -12.519
  -2.079        -12.526
  -2.077        -12.533
  -2.075        -12.540
  -2.073        -12.547
  -2.071        -12.555
  -2.069        -12.562
  -2.066        -12.569
  -2.064        -12.576
  -2.062        -12.584
  -2.060        -12.591
  -2.058        -12.599
  -2.056        -12.607
  -2.053        -12.614
  -2.051        -12.622
  -2.049        -12.630
  -2.047        -12.638
  -2.045        -12.646
  -2.043        -12.654
  -2.040        -12.662
  -2.038        -12.671
  -2.036        -12.679
  -2.034        -12.687
  -2.032        -12.696
  -2.029        -12.704
  -2.027        -12.713
  -2.025        -12.722
  -2.023        -12.730
  -2.021        -12.739
  -2.019        -12.748
  -2.016        -12.757
  -2.014        -12.766
  -2.012        -12.775
  -2.010        -12.785
  -2.008        -12.794
  -2.006        -12.803
  -2.003        -12.813
  -2.001        -12.822
  -1.999        -12.832
  -1.997        -12.841
  -1.995        -12.851
  -1.993        -12.861
  -1.990        -12.871
  -1.988        -12.881
  -1.986        -12.891
  -1.984        -12.901
  -1.982        -12.912
  -1.980        -12.922
  -1.977        -12.932
  -1.975        -12.943
  -1.973        -12.954
  -1.971        -12.964
  -1.969        -12.975
  -1.967        -12.986
  -1.964        -12.997
  -1.962        -13.008
  -1.960        -13.019
  -1.958        -13.030
  -1.956        -13.042
  -1.953        -13.053
  -1.951        -13.064
  -1.949        -13.076
