# log Energy    log Jnu
# (eV)          (ergs/s/cm2/Hz/Sr)
  -6.864        -20.597
  -6.820        -20.510
  -6.777        -20.423
  -6.734        -20.336
  -6.690        -20.249
  -6.647        -20.163
  -6.603        -20.076
  -6.560        -19.989
  -6.516        -19.902
  -6.473        -19.815
  -6.430        -19.728
  -6.386        -19.641
  -6.343        -19.555
  -6.299        -19.468
  -6.256        -19.381
  -6.212        -19.294
  -6.169        -19.207
  -6.126        -19.120
  -6.082        -19.034
  -6.039        -18.947
  -5.995        -18.860
  -5.952        -18.773
  -5.908        -18.686
  -5.865        -18.600
  -5.822        -18.513
  -5.778        -18.426
  -5.735        -18.339
  -5.691        -18.252
  -5.648        -18.166
  -5.605        -18.079
  -5.561        -17.992
  -5.518        -17.906
  -5.474        -17.819
  -5.431        -17.732
  -5.387        -17.645
  -5.344        -17.559
  -5.300        -17.472
  -5.257        -17.385
  -5.214        -17.299
  -5.170        -17.212
  -5.127        -17.125
  -5.083        -17.039
  -5.040        -16.952
  -4.996        -16.866
  -4.953        -16.780
  -4.910        -16.693
  -4.866        -16.607
  -4.823        -16.520
  -4.779        -16.434
  -4.736        -16.348
  -4.692        -16.262
  -4.649        -16.176
  -4.606        -16.090
  -4.562        -16.004
  -4.519        -15.919
  -4.475        -15.833
  -4.432        -15.748
  -4.388        -15.663
  -4.345        -15.577
  -4.302        -15.492
  -4.258        -15.408
  -4.215        -15.323
  -4.171        -15.239
  -4.128        -15.155
  -4.084        -15.071
  -4.041        -14.988
  -3.998        -14.905
  -3.954        -14.823
  -3.911        -14.741
  -3.867        -14.660
  -3.824        -14.579
  -3.781        -14.499
  -3.737        -14.419
  -3.693        -14.341
  -3.650        -14.263
  -3.607        -14.187
  -3.584        -14.151
  -3.582        -14.141
  -3.580        -14.140
  -3.577        -14.137
  -3.575        -14.133
  -3.573        -14.129
  -3.571        -14.125
  -3.569        -14.122
  -3.567        -14.118
  -3.564        -14.114
  -3.562        -14.110
  -3.560        -14.107
  -3.558        -14.103
  -3.556        -14.099
  -3.554        -14.095
  -3.551        -14.092
  -3.549        -14.088
  -3.547        -14.084
  -3.545        -14.081
  -3.543        -14.077
  -3.540        -14.073
  -3.538        -14.069
  -3.536        -14.066
  -3.534        -14.062
  -3.532        -14.058
  -3.530        -14.055
  -3.528        -14.051
  -3.525        -14.047
  -3.523        -14.043
  -3.521        -14.040
  -3.519        -14.036
  -3.517        -14.032
  -3.514        -14.029
  -3.512        -14.025
  -3.510        -14.021
  -3.508        -14.018
  -3.506        -14.014
  -3.504        -14.010
  -3.502        -14.007
  -3.499        -14.003
  -3.497        -14.000
  -3.495        -13.996
  -3.493        -13.992
  -3.491        -13.989
  -3.488        -13.985
  -3.486        -13.982
  -3.484        -13.978
  -3.482        -13.974
  -3.480        -13.971
  -3.477        -13.967
  -3.475        -13.963
  -3.473        -13.960
  -3.471        -13.956
  -3.469        -13.953
  -3.467        -13.949
  -3.464        -13.946
  -3.462        -13.942
  -3.460        -13.938
  -3.458        -13.935
  -3.456        -13.931
  -3.454        -13.928
  -3.451        -13.924
  -3.449        -13.920
  -3.447        -13.917
  -3.445        -13.913
  -3.443        -13.910
  -3.441        -13.906
  -3.438        -13.903
  -3.436        -13.899
  -3.434        -13.896
  -3.432        -13.892
  -3.430        -13.889
  -3.428        -13.885
  -3.425        -13.882
  -3.423        -13.878
  -3.421        -13.875
  -3.419        -13.871
  -3.417        -13.868
  -3.415        -13.864
  -3.412        -13.861
  -3.410        -13.857
  -3.408        -13.854
  -3.406        -13.850
  -3.404        -13.847
  -3.402        -13.844
  -3.399        -13.840
  -3.397        -13.837
  -3.395        -13.833
  -3.393        -13.830
  -3.391        -13.826
  -3.389        -13.823
  -3.386        -13.820
  -3.384        -13.816
  -3.382        -13.813
  -3.380        -13.809
  -3.378        -13.806
  -3.376        -13.803
  -3.373        -13.799
  -3.371        -13.796
  -3.369        -13.792
  -3.367        -13.789
  -3.365        -13.786
  -3.362        -13.782
  -3.360        -13.779
  -3.358        -13.776
  -3.356        -13.772
  -3.354        -13.769
  -3.352        -13.766
  -3.349        -13.762
  -3.347        -13.759
  -3.345        -13.756
  -3.343        -13.752
  -3.341        -13.749
  -3.339        -13.746
  -3.336        -13.743
  -3.334        -13.739
  -3.332        -13.736
  -3.330        -13.733
  -3.328        -13.730
  -3.326        -13.726
  -3.323        -13.723
  -3.321        -13.720
  -3.319        -13.717
  -3.317        -13.713
  -3.315        -13.710
  -3.313        -13.707
  -3.310        -13.704
  -3.308        -13.701
  -3.306        -13.697
  -3.304        -13.694
  -3.302        -13.691
  -3.300        -13.688
  -3.297        -13.685
  -3.295        -13.681
  -3.293        -13.678
  -3.291        -13.675
  -3.289        -13.672
  -3.287        -13.669
  -3.284        -13.666
  -3.282        -13.663
  -3.280        -13.659
  -3.278        -13.656
  -3.276        -13.653
  -3.273        -13.650
  -3.271        -13.647
  -3.269        -13.644
  -3.267        -13.641
  -3.265        -13.638
  -3.263        -13.635
  -3.260        -13.632
  -3.258        -13.629
  -3.256        -13.626
  -3.254        -13.623
  -3.252        -13.619
  -3.250        -13.617
  -3.247        -13.613
  -3.245        -13.610
  -3.243        -13.607
  -3.241        -13.604
  -3.239        -13.602
  -3.237        -13.599
  -3.234        -13.596
  -3.232        -13.593
  -3.230        -13.590
  -3.228        -13.587
  -3.226        -13.584
  -3.224        -13.581
  -3.221        -13.578
  -3.219        -13.575
  -3.217        -13.572
  -3.215        -13.569
  -3.213        -13.566
  -3.211        -13.564
  -3.208        -13.561
  -3.206        -13.558
  -3.204        -13.555
  -3.202        -13.552
  -3.200        -13.549
  -3.197        -13.547
  -3.195        -13.544
  -3.193        -13.541
  -3.191        -13.538
  -3.189        -13.535
  -3.187        -13.532
  -3.184        -13.530
  -3.182        -13.527
  -3.180        -13.524
  -3.178        -13.521
  -3.176        -13.519
  -3.174        -13.516
  -3.171        -13.513
  -3.169        -13.511
  -3.167        -13.508
  -3.165        -13.505
  -3.163        -13.503
  -3.161        -13.500
  -3.158        -13.497
  -3.156        -13.495
  -3.154        -13.492
  -3.152        -13.489
  -3.150        -13.487
  -3.148        -13.484
  -3.145        -13.482
  -3.143        -13.479
  -3.141        -13.476
  -3.139        -13.474
  -3.137        -13.471
  -3.135        -13.469
  -3.132        -13.466
  -3.130        -13.464
  -3.128        -13.461
  -3.126        -13.459
  -3.124        -13.456
  -3.122        -13.454
  -3.119        -13.451
  -3.117        -13.449
  -3.115        -13.446
  -3.113        -13.444
  -3.111        -13.441
  -3.108        -13.439
  -3.106        -13.437
  -3.104        -13.434
  -3.102        -13.432
  -3.100        -13.429
  -3.098        -13.427
  -3.095        -13.425
  -3.093        -13.422
  -3.091        -13.420
  -3.089        -13.418
  -3.087        -13.416
  -3.085        -13.413
  -3.082        -13.411
  -3.080        -13.409
  -3.078        -13.406
  -3.076        -13.404
  -3.074        -13.402
  -3.072        -13.400
  -3.069        -13.397
  -3.067        -13.395
  -3.065        -13.393
  -3.063        -13.391
  -3.061        -13.389
  -3.059        -13.387
  -3.056        -13.385
  -3.054        -13.383
  -3.052        -13.381
  -3.050        -13.379
  -3.048        -13.377
  -3.046        -13.374
  -3.043        -13.372
  -3.041        -13.370
  -3.039        -13.368
  -3.037        -13.366
  -3.035        -13.364
  -3.032        -13.362
  -3.030        -13.360
  -3.028        -13.358
  -3.026        -13.357
  -3.024        -13.355
  -3.022        -13.353
  -3.019        -13.351
  -3.017        -13.349
  -3.015        -13.347
  -3.013        -13.345
  -3.011        -13.344
  -3.009        -13.342
  -3.006        -13.340
  -3.004        -13.338
  -3.002        -13.336
  -3.000        -13.335
  -2.998        -13.333
  -2.996        -13.331
  -2.993        -13.329
  -2.991        -13.328
  -2.989        -13.326
  -2.987        -13.325
  -2.985        -13.323
  -2.983        -13.321
  -2.980        -13.320
  -2.978        -13.318
  -2.976        -13.317
  -2.974        -13.315
  -2.972        -13.313
  -2.970        -13.312
  -2.967        -13.310
  -2.965        -13.309
  -2.963        -13.307
  -2.961        -13.306
  -2.959        -13.305
  -2.956        -13.303
  -2.954        -13.302
  -2.952        -13.300
  -2.950        -13.299
  -2.948        -13.298
  -2.946        -13.296
  -2.944        -13.295
  -2.941        -13.294
  -2.939        -13.293
  -2.937        -13.291
  -2.935        -13.290
  -2.933        -13.289
  -2.930        -13.288
  -2.928        -13.286
  -2.926        -13.285
  -2.924        -13.284
  -2.922        -13.283
  -2.920        -13.282
  -2.917        -13.281
  -2.915        -13.280
  -2.913        -13.279
  -2.911        -13.278
  -2.909        -13.277
  -2.907        -13.276
  -2.904        -13.275
  -2.902        -13.274
  -2.900        -13.273
  -2.898        -13.272
  -2.896        -13.271
  -2.894        -13.271
  -2.891        -13.270
  -2.889        -13.269
  -2.887        -13.268
  -2.885        -13.267
  -2.883        -13.267
  -2.880        -13.266
  -2.878        -13.265
  -2.876        -13.265
  -2.874        -13.264
  -2.872        -13.263
  -2.870        -13.263
  -2.867        -13.262
  -2.865        -13.262
  -2.863        -13.261
  -2.861        -13.260
  -2.859        -13.260
  -2.857        -13.260
  -2.855        -13.259
  -2.852        -13.259
  -2.850        -13.258
  -2.848        -13.258
  -2.846        -13.258
  -2.843        -13.258
  -2.842        -13.257
  -2.839        -13.257
  -2.837        -13.256
  -2.835        -13.256
  -2.833        -13.256
  -2.831        -13.256
  -2.828        -13.256
  -2.826        -13.256
  -2.824        -13.256
  -2.822        -13.256
  -2.820        -13.256
  -2.817        -13.256
  -2.815        -13.256
  -2.813        -13.256
  -2.811        -13.256
  -2.809        -13.256
  -2.807        -13.256
  -2.805        -13.256
  -2.802        -13.257
  -2.800        -13.257
  -2.798        -13.257
  -2.796        -13.257
  -2.794        -13.257
  -2.792        -13.258
  -2.789        -13.258
  -2.787        -13.259
  -2.785        -13.259
  -2.783        -13.259
  -2.781        -13.260
  -2.779        -13.260
  -2.776        -13.261
  -2.774        -13.261
  -2.772        -13.262
  -2.770        -13.263
  -2.767        -13.263
  -2.765        -13.264
  -2.763        -13.265
  -2.761        -13.265
  -2.759        -13.266
  -2.757        -13.267
  -2.754        -13.268
  -2.753        -13.269
  -2.750        -13.270
  -2.748        -13.271
  -2.746        -13.272
  -2.744        -13.273
  -2.741        -13.274
  -2.739        -13.275
  -2.737        -13.276
  -2.735        -13.277
  -2.733        -13.278
  -2.731        -13.279
  -2.729        -13.281
  -2.726        -13.282
  -2.724        -13.283
  -2.722        -13.285
  -2.720        -13.286
  -2.718        -13.288
  -2.716        -13.289
  -2.713        -13.290
  -2.711        -13.292
  -2.709        -13.293
  -2.707        -13.295
  -2.705        -13.297
  -2.703        -13.298
  -2.700        -13.300
  -2.698        -13.302
  -2.696        -13.303
  -2.694        -13.305
  -2.692        -13.307
  -2.689        -13.309
  -2.687        -13.311
  -2.685        -13.313
  -2.683        -13.315
  -2.681        -13.317
  -2.679        -13.319
  -2.677        -13.321
  -2.674        -13.324
  -2.672        -13.326
  -2.670        -13.328
  -2.668        -13.330
  -2.666        -13.333
  -2.663        -13.335
  -2.661        -13.337
  -2.659        -13.340
  -2.657        -13.342
  -2.655        -13.345
  -2.653        -13.348
  -2.650        -13.350
  -2.648        -13.353
  -2.646        -13.356
  -2.644        -13.358
  -2.642        -13.361
  -2.640        -13.364
  -2.637        -13.367
  -2.635        -13.370
  -2.633        -13.373
  -2.631        -13.376
  -2.629        -13.379
  -2.626        -13.382
  -2.624        -13.385
  -2.622        -13.388
  -2.620        -13.391
  -2.618        -13.395
  -2.616        -13.398
  -2.614        -13.402
  -2.611        -13.405
  -2.609        -13.408
  -2.607        -13.412
  -2.605        -13.416
  -2.603        -13.419
  -2.600        -13.423
  -2.598        -13.427
  -2.596        -13.430
  -2.594        -13.434
  -2.592        -13.438
  -2.590        -13.442
  -2.587        -13.446
  -2.585        -13.450
  -2.583        -13.454
  -2.581        -13.458
  -2.579        -13.462
  -2.577        -13.467
  -2.574        -13.471
  -2.572        -13.475
  -2.570        -13.480
  -2.568        -13.484
  -2.566        -13.489
  -2.564        -13.493
  -2.561        -13.498
  -2.559        -13.502
  -2.557        -13.507
  -2.555        -13.512
  -2.553        -13.517
  -2.551        -13.521
  -2.548        -13.526
  -2.546        -13.531
  -2.544        -13.536
  -2.542        -13.541
  -2.540        -13.547
  -2.538        -13.552
  -2.535        -13.557
  -2.533        -13.563
  -2.531        -13.568
  -2.529        -13.573
  -2.527        -13.579
  -2.525        -13.584
  -2.522        -13.590
  -2.520        -13.595
  -2.518        -13.601
  -2.516        -13.607
  -2.514        -13.613
  -2.511        -13.619
  -2.509        -13.625
  -2.507        -13.631
  -2.505        -13.637
  -2.503        -13.643
  -2.501        -13.649
  -2.498        -13.656
  -2.496        -13.662
  -2.494        -13.668
  -2.492        -13.675
  -2.490        -13.681
  -2.488        -13.688
  -2.485        -13.695
  -2.483        -13.701
  -2.481        -13.708
  -2.479        -13.715
  -2.477        -13.722
  -2.475        -13.729
  -2.472        -13.736
  -2.470        -13.743
  -2.468        -13.750
  -2.466        -13.758
  -2.464        -13.765
  -2.462        -13.772
  -2.459        -13.780
  -2.457        -13.788
  -2.455        -13.795
  -2.453        -13.803
  -2.451        -13.811
  -2.448        -13.818
  -2.446        -13.826
  -2.444        -13.834
  -2.442        -13.842
  -2.440        -13.850
  -2.438        -13.859
  -2.435        -13.867
  -2.433        -13.875
  -2.431        -13.884
  -2.429        -13.892
  -2.427        -13.901
  -2.425        -13.909
  -2.422        -13.918
  -2.420        -13.927
  -2.418        -13.935
  -2.416        -13.945
  -2.414        -13.954
  -2.412        -13.963
  -2.409        -13.972
  -2.407        -13.981
  -2.405        -13.991
  -2.403        -14.000
  -2.401        -14.009
  -2.398        -14.019
  -2.396        -14.029
  -2.394        -14.038
  -2.392        -14.048
  -2.390        -14.058
  -2.388        -14.068
  -2.386        -14.078
  -2.383        -14.088
  -2.381        -14.098
  -2.379        -14.109
  -2.377        -14.119
  -2.375        -14.129
  -2.372        -14.140
  -2.370        -14.151
  -2.368        -14.161
  -2.366        -14.172
  -2.364        -14.183
  -2.362        -14.194
  -2.359        -14.205
  -2.357        -14.216
  -2.355        -14.227
  -2.353        -14.239
  -2.351        -14.250
  -2.349        -14.262
  -2.346        -14.273
  -2.344        -14.285
  -2.342        -14.297
  -2.340        -14.309
  -2.338        -14.321
  -2.336        -14.333
  -2.333        -14.345
  -2.331        -14.357
  -2.329        -14.369
  -2.327        -14.382
  -2.325        -14.394
  -2.323        -14.407
  -2.320        -14.420
  -2.318        -14.433
  -2.316        -14.445
  -2.314        -14.458
  -2.312        -14.472
  -2.309        -14.485
  -2.307        -14.498
  -2.305        -14.512
  -2.303        -14.525
  -2.301        -14.539
  -2.299        -14.552
  -2.297        -14.566
  -2.294        -14.580
  -2.292        -14.594
  -2.290        -14.608
  -2.288        -14.622
  -2.286        -14.637
  -2.283        -14.651
  -2.281        -14.666
  -2.279        -14.680
  -2.277        -14.695
  -2.275        -14.710
  -2.273        -14.725
  -2.270        -14.740
  -2.268        -14.755
  -2.266        -14.770
  -2.264        -14.786
  -2.262        -14.801
  -2.260        -14.817
  -2.257        -14.833
  -2.255        -14.848
  -2.253        -14.864
  -2.251        -14.880
  -2.249        -14.897
  -2.247        -14.913
  -2.244        -14.929
  -2.242        -14.946
  -2.240        -14.962
  -2.238        -14.979
  -2.236        -14.996
  -2.234        -15.013
  -2.231        -15.030
  -2.229        -15.047
  -2.227        -15.064
  -2.225        -15.082
  -2.223        -15.099
  -2.220        -15.117
  -2.218        -15.135
  -2.216        -15.153
  -2.214        -15.171
  -2.212        -15.189
  -2.210        -15.207
  -2.207        -15.226
  -2.205        -15.245
  -2.203        -15.263
  -2.201        -15.282
  -2.199        -15.301
  -2.197        -15.320
  -2.194        -15.339
  -2.192        -15.358
  -2.190        -15.378
  -2.188        -15.398
  -2.186        -15.417
  -2.184        -15.437
  -2.181        -15.457
  -2.179        -15.477
  -2.177        -15.497
  -2.175        -15.518
  -2.173        -15.538
  -2.171        -15.559
  -2.168        -15.580
  -2.166        -15.601
  -2.164        -15.622
  -2.162        -15.643
  -2.160        -15.664
  -2.158        -15.686
  -2.155        -15.707
  -2.153        -15.729
  -2.151        -15.751
  -2.149        -15.773
  -2.147        -15.795
  -2.145        -15.817
  -2.142        -15.840
  -2.140        -15.862
  -2.138        -15.885
  -2.136        -15.908
  -2.134        -15.931
  -2.131        -15.954
  -2.129        -15.977
  -2.127        -16.001
  -2.125        -16.024
  -2.123        -16.048
  -2.121        -16.072
  -2.118        -16.096
  -2.116        -16.120
  -2.114        -16.145
  -2.112        -16.169
  -2.110        -16.194
  -2.108        -16.219
  -2.105        -16.244
  -2.103        -16.269
  -2.101        -16.294
  -2.099        -16.320
  -2.097        -16.345
  -2.095        -16.371
  -2.092        -16.397
  -2.090        -16.423
  -2.088        -16.449
  -2.086        -16.476
  -2.084        -16.502
  -2.082        -16.529
  -2.079        -16.556
  -2.077        -16.583
  -2.075        -16.610
  -2.073        -16.637
  -2.071        -16.665
  -2.069        -16.692
  -2.066        -16.720
  -2.064        -16.748
  -2.062        -16.776
  -2.060        -16.805
  -2.058        -16.833
  -2.056        -16.862
  -2.053        -16.890
  -2.051        -16.919
  -2.049        -16.948
  -2.047        -16.977
  -2.045        -17.007
  -2.043        -17.036
  -2.040        -17.066
  -2.038        -17.095
  -2.036        -17.125
  -2.034        -17.155
  -2.032        -17.186
  -2.029        -17.216
  -2.027        -17.246
  -2.025        -17.277
  -2.023        -17.307
  -2.021        -17.338
  -2.019        -17.369
  -2.016        -17.400
  -2.014        -17.430
  -2.012        -17.461
  -2.010        -17.492
  -2.008        -17.523
  -2.006        -17.554
  -2.003        -17.585
  -2.001        -17.617
  -1.999        -17.648
  -1.997        -17.679
  -1.995        -17.709
  -1.993        -17.740
  -1.990        -17.771
  -1.988        -17.802
  -1.986        -17.833
  -1.984        -17.864
  -1.982        -17.895
  -1.980        -17.925
  -1.977        -17.956
  -1.975        -17.986
  -1.973        -18.016
  -1.971        -18.046
  -1.969        -18.076
  -1.967        -18.105
  -1.964        -18.134
  -1.962        -18.162
  -1.960        -18.190
  -1.958        -18.218
  -1.956        -18.245
  -1.953        -18.272
  -1.951        -18.298
  -1.949        -18.323
