# log Energy    log Jnu
# (eV)          (ergs/s/cm2/Hz/Sr)
  -6.864        -20.722
  -6.820        -20.635
  -6.777        -20.548
  -6.734        -20.461
  -6.690        -20.374
  -6.647        -20.288
  -6.603        -20.201
  -6.560        -20.114
  -6.516        -20.027
  -6.473        -19.940
  -6.430        -19.853
  -6.386        -19.766
  -6.343        -19.680
  -6.299        -19.593
  -6.256        -19.506
  -6.212        -19.419
  -6.169        -19.332
  -6.126        -19.245
  -6.082        -19.159
  -6.039        -19.072
  -5.995        -18.985
  -5.952        -18.898
  -5.908        -18.811
  -5.865        -18.725
  -5.822        -18.638
  -5.778        -18.551
  -5.735        -18.464
  -5.691        -18.378
  -5.648        -18.291
  -5.605        -18.204
  -5.561        -18.118
  -5.518        -18.031
  -5.474        -17.944
  -5.431        -17.857
  -5.387        -17.771
  -5.344        -17.684
  -5.300        -17.598
  -5.257        -17.511
  -5.214        -17.424
  -5.170        -17.338
  -5.127        -17.251
  -5.083        -17.165
  -5.040        -17.079
  -4.996        -16.992
  -4.953        -16.906
  -4.910        -16.820
  -4.866        -16.734
  -4.823        -16.648
  -4.779        -16.562
  -4.736        -16.476
  -4.692        -16.390
  -4.649        -16.304
  -4.606        -16.218
  -4.562        -16.133
  -4.519        -16.048
  -4.475        -15.963
  -4.432        -15.878
  -4.388        -15.793
  -4.345        -15.709
  -4.302        -15.624
  -4.258        -15.540
  -4.215        -15.457
  -4.171        -15.373
  -4.128        -15.290
  -4.084        -15.208
  -4.041        -15.126
  -3.998        -15.044
  -3.954        -14.963
  -3.911        -14.883
  -3.867        -14.804
  -3.824        -14.725
  -3.781        -14.647
  -3.737        -14.570
  -3.693        -14.495
  -3.650        -14.420
  -3.607        -14.348
  -3.584        -14.314
  -3.582        -14.305
  -3.580        -14.303
  -3.577        -14.300
  -3.575        -14.297
  -3.573        -14.293
  -3.571        -14.290
  -3.569        -14.286
  -3.567        -14.283
  -3.564        -14.279
  -3.562        -14.276
  -3.560        -14.272
  -3.558        -14.269
  -3.556        -14.265
  -3.554        -14.262
  -3.551        -14.258
  -3.549        -14.255
  -3.547        -14.251
  -3.545        -14.248
  -3.543        -14.244
  -3.540        -14.241
  -3.538        -14.237
  -3.536        -14.234
  -3.534        -14.230
  -3.532        -14.227
  -3.530        -14.223
  -3.528        -14.220
  -3.525        -14.217
  -3.523        -14.213
  -3.521        -14.210
  -3.519        -14.206
  -3.517        -14.203
  -3.514        -14.199
  -3.512        -14.196
  -3.510        -14.192
  -3.508        -14.189
  -3.506        -14.186
  -3.504        -14.182
  -3.502        -14.179
  -3.499        -14.176
  -3.497        -14.172
  -3.495        -14.169
  -3.493        -14.165
  -3.491        -14.162
  -3.488        -14.159
  -3.486        -14.155
  -3.484        -14.152
  -3.482        -14.149
  -3.480        -14.145
  -3.477        -14.142
  -3.475        -14.139
  -3.473        -14.135
  -3.471        -14.132
  -3.469        -14.129
  -3.467        -14.125
  -3.464        -14.122
  -3.462        -14.119
  -3.460        -14.116
  -3.458        -14.112
  -3.456        -14.109
  -3.454        -14.106
  -3.451        -14.103
  -3.449        -14.099
  -3.447        -14.096
  -3.445        -14.093
  -3.443        -14.090
  -3.441        -14.086
  -3.438        -14.083
  -3.436        -14.080
  -3.434        -14.077
  -3.432        -14.074
  -3.430        -14.070
  -3.428        -14.067
  -3.425        -14.064
  -3.423        -14.061
  -3.421        -14.058
  -3.419        -14.054
  -3.417        -14.051
  -3.415        -14.048
  -3.412        -14.045
  -3.410        -14.042
  -3.408        -14.039
  -3.406        -14.036
  -3.404        -14.032
  -3.402        -14.030
  -3.399        -14.026
  -3.397        -14.023
  -3.395        -14.020
  -3.393        -14.017
  -3.391        -14.014
  -3.389        -14.011
  -3.386        -14.008
  -3.384        -14.005
  -3.382        -14.002
  -3.380        -13.999
  -3.378        -13.996
  -3.376        -13.993
  -3.373        -13.990
  -3.371        -13.987
  -3.369        -13.984
  -3.367        -13.981
  -3.365        -13.978
  -3.362        -13.975
  -3.360        -13.972
  -3.358        -13.969
  -3.356        -13.966
  -3.354        -13.963
  -3.352        -13.960
  -3.349        -13.957
  -3.347        -13.954
  -3.345        -13.951
  -3.343        -13.948
  -3.341        -13.945
  -3.339        -13.942
  -3.336        -13.940
  -3.334        -13.937
  -3.332        -13.934
  -3.330        -13.931
  -3.328        -13.928
  -3.326        -13.925
  -3.323        -13.922
  -3.321        -13.920
  -3.319        -13.917
  -3.317        -13.914
  -3.315        -13.911
  -3.313        -13.909
  -3.310        -13.906
  -3.308        -13.903
  -3.306        -13.900
  -3.304        -13.898
  -3.302        -13.895
  -3.300        -13.892
  -3.297        -13.889
  -3.295        -13.887
  -3.293        -13.884
  -3.291        -13.881
  -3.289        -13.879
  -3.287        -13.876
  -3.284        -13.873
  -3.282        -13.871
  -3.280        -13.868
  -3.278        -13.865
  -3.276        -13.863
  -3.273        -13.860
  -3.271        -13.857
  -3.269        -13.855
  -3.267        -13.852
  -3.265        -13.850
  -3.263        -13.847
  -3.260        -13.845
  -3.258        -13.842
  -3.256        -13.839
  -3.254        -13.837
  -3.252        -13.835
  -3.250        -13.832
  -3.247        -13.830
  -3.245        -13.827
  -3.243        -13.825
  -3.241        -13.822
  -3.239        -13.820
  -3.237        -13.817
  -3.234        -13.815
  -3.232        -13.812
  -3.230        -13.810
  -3.228        -13.808
  -3.226        -13.805
  -3.224        -13.803
  -3.221        -13.801
  -3.219        -13.798
  -3.217        -13.796
  -3.215        -13.794
  -3.213        -13.791
  -3.211        -13.789
  -3.208        -13.787
  -3.206        -13.785
  -3.204        -13.782
  -3.202        -13.780
  -3.200        -13.778
  -3.197        -13.776
  -3.195        -13.773
  -3.193        -13.771
  -3.191        -13.769
  -3.189        -13.767
  -3.187        -13.765
  -3.184        -13.763
  -3.182        -13.761
  -3.180        -13.758
  -3.178        -13.756
  -3.176        -13.754
  -3.174        -13.752
  -3.171        -13.750
  -3.169        -13.748
  -3.167        -13.746
  -3.165        -13.744
  -3.163        -13.742
  -3.161        -13.740
  -3.158        -13.738
  -3.156        -13.736
  -3.154        -13.734
  -3.152        -13.732
  -3.150        -13.730
  -3.148        -13.728
  -3.145        -13.727
  -3.143        -13.725
  -3.141        -13.723
  -3.139        -13.721
  -3.137        -13.719
  -3.135        -13.717
  -3.132        -13.715
  -3.130        -13.714
  -3.128        -13.712
  -3.126        -13.710
  -3.124        -13.708
  -3.122        -13.707
  -3.119        -13.705
  -3.117        -13.703
  -3.115        -13.702
  -3.113        -13.700
  -3.111        -13.698
  -3.108        -13.697
  -3.106        -13.695
  -3.104        -13.694
  -3.102        -13.692
  -3.100        -13.690
  -3.098        -13.689
  -3.095        -13.687
  -3.093        -13.686
  -3.091        -13.684
  -3.089        -13.683
  -3.087        -13.681
  -3.085        -13.680
  -3.082        -13.679
  -3.080        -13.677
  -3.078        -13.676
  -3.076        -13.675
  -3.074        -13.673
  -3.072        -13.672
  -3.069        -13.671
  -3.067        -13.669
  -3.065        -13.668
  -3.063        -13.667
  -3.061        -13.665
  -3.059        -13.664
  -3.056        -13.663
  -3.054        -13.662
  -3.052        -13.661
  -3.050        -13.660
  -3.048        -13.658
  -3.046        -13.657
  -3.043        -13.656
  -3.041        -13.655
  -3.039        -13.654
  -3.037        -13.653
  -3.035        -13.652
  -3.032        -13.651
  -3.030        -13.650
  -3.028        -13.649
  -3.026        -13.648
  -3.024        -13.647
  -3.022        -13.647
  -3.019        -13.646
  -3.017        -13.645
  -3.015        -13.644
  -3.013        -13.643
  -3.011        -13.643
  -3.009        -13.642
  -3.006        -13.641
  -3.004        -13.640
  -3.002        -13.640
  -3.000        -13.639
  -2.998        -13.638
  -2.996        -13.638
  -2.993        -13.637
  -2.991        -13.637
  -2.989        -13.636
  -2.987        -13.636
  -2.985        -13.635
  -2.983        -13.635
  -2.980        -13.634
  -2.978        -13.634
  -2.976        -13.633
  -2.974        -13.633
  -2.972        -13.633
  -2.970        -13.632
  -2.967        -13.632
  -2.965        -13.632
  -2.963        -13.632
  -2.961        -13.631
  -2.959        -13.631
  -2.956        -13.631
  -2.954        -13.631
  -2.952        -13.631
  -2.950        -13.631
  -2.948        -13.630
  -2.946        -13.630
  -2.944        -13.630
  -2.941        -13.630
  -2.939        -13.631
  -2.937        -13.631
  -2.935        -13.631
  -2.933        -13.631
  -2.930        -13.631
  -2.928        -13.631
  -2.926        -13.631
  -2.924        -13.632
  -2.922        -13.632
  -2.920        -13.632
  -2.917        -13.632
  -2.915        -13.633
  -2.913        -13.633
  -2.911        -13.634
  -2.909        -13.634
  -2.907        -13.634
  -2.904        -13.635
  -2.902        -13.635
  -2.900        -13.636
  -2.898        -13.637
  -2.896        -13.637
  -2.894        -13.638
  -2.891        -13.638
  -2.889        -13.639
  -2.887        -13.640
  -2.885        -13.641
  -2.883        -13.642
  -2.880        -13.642
  -2.878        -13.643
  -2.876        -13.644
  -2.874        -13.645
  -2.872        -13.646
  -2.870        -13.647
  -2.867        -13.648
  -2.865        -13.649
  -2.863        -13.650
  -2.861        -13.651
  -2.859        -13.653
  -2.857        -13.654
  -2.855        -13.655
  -2.852        -13.656
  -2.850        -13.657
  -2.848        -13.659
  -2.846        -13.660
  -2.843        -13.662
  -2.842        -13.663
  -2.839        -13.665
  -2.837        -13.666
  -2.835        -13.668
  -2.833        -13.669
  -2.831        -13.671
  -2.828        -13.672
  -2.826        -13.674
  -2.824        -13.676
  -2.822        -13.677
  -2.820        -13.679
  -2.817        -13.681
  -2.815        -13.683
  -2.813        -13.685
  -2.811        -13.687
  -2.809        -13.689
  -2.807        -13.691
  -2.805        -13.693
  -2.802        -13.695
  -2.800        -13.697
  -2.798        -13.700
  -2.796        -13.702
  -2.794        -13.704
  -2.792        -13.706
  -2.789        -13.709
  -2.787        -13.711
  -2.785        -13.714
  -2.783        -13.716
  -2.781        -13.719
  -2.779        -13.721
  -2.776        -13.724
  -2.774        -13.726
  -2.772        -13.729
  -2.770        -13.732
  -2.767        -13.735
  -2.765        -13.737
  -2.763        -13.740
  -2.761        -13.743
  -2.759        -13.746
  -2.757        -13.749
  -2.754        -13.752
  -2.753        -13.755
  -2.750        -13.758
  -2.748        -13.762
  -2.746        -13.765
  -2.744        -13.768
  -2.741        -13.772
  -2.739        -13.775
  -2.737        -13.778
  -2.735        -13.782
  -2.733        -13.785
  -2.731        -13.789
  -2.729        -13.792
  -2.726        -13.796
  -2.724        -13.800
  -2.722        -13.803
  -2.720        -13.807
  -2.718        -13.811
  -2.716        -13.815
  -2.713        -13.819
  -2.711        -13.823
  -2.709        -13.827
  -2.707        -13.831
  -2.705        -13.835
  -2.703        -13.839
  -2.700        -13.844
  -2.698        -13.848
  -2.696        -13.852
  -2.694        -13.857
  -2.692        -13.861
  -2.689        -13.866
  -2.687        -13.870
  -2.685        -13.875
  -2.683        -13.880
  -2.681        -13.884
  -2.679        -13.889
  -2.677        -13.894
  -2.674        -13.899
  -2.672        -13.904
  -2.670        -13.909
  -2.668        -13.914
  -2.666        -13.919
  -2.663        -13.924
  -2.661        -13.930
  -2.659        -13.935
  -2.657        -13.940
  -2.655        -13.945
  -2.653        -13.951
  -2.650        -13.957
  -2.648        -13.962
  -2.646        -13.968
  -2.644        -13.974
  -2.642        -13.979
  -2.640        -13.985
  -2.637        -13.991
  -2.635        -13.997
  -2.633        -14.003
  -2.631        -14.009
  -2.629        -14.015
  -2.626        -14.021
  -2.624        -14.028
  -2.622        -14.034
  -2.620        -14.040
  -2.618        -14.047
  -2.616        -14.053
  -2.614        -14.060
  -2.611        -14.067
  -2.609        -14.073
  -2.607        -14.080
  -2.605        -14.087
  -2.603        -14.094
  -2.600        -14.101
  -2.598        -14.108
  -2.596        -14.115
  -2.594        -14.122
  -2.592        -14.129
  -2.590        -14.137
  -2.587        -14.144
  -2.585        -14.151
  -2.583        -14.159
  -2.581        -14.166
  -2.579        -14.174
  -2.577        -14.182
  -2.574        -14.190
  -2.572        -14.198
  -2.570        -14.205
  -2.568        -14.214
  -2.566        -14.222
  -2.564        -14.230
  -2.561        -14.238
  -2.559        -14.246
  -2.557        -14.255
  -2.555        -14.263
  -2.553        -14.272
  -2.551        -14.280
  -2.548        -14.289
  -2.546        -14.298
  -2.544        -14.306
  -2.542        -14.315
  -2.540        -14.324
  -2.538        -14.333
  -2.535        -14.343
  -2.533        -14.352
  -2.531        -14.361
  -2.529        -14.370
  -2.527        -14.380
  -2.525        -14.389
  -2.522        -14.399
  -2.520        -14.408
  -2.518        -14.418
  -2.516        -14.428
  -2.514        -14.438
  -2.511        -14.448
  -2.509        -14.458
  -2.507        -14.468
  -2.505        -14.479
  -2.503        -14.489
  -2.501        -14.499
  -2.498        -14.510
  -2.496        -14.521
  -2.494        -14.531
  -2.492        -14.542
  -2.490        -14.553
  -2.488        -14.564
  -2.485        -14.575
  -2.483        -14.586
  -2.481        -14.597
  -2.479        -14.609
  -2.477        -14.620
  -2.475        -14.631
  -2.472        -14.643
  -2.470        -14.654
  -2.468        -14.666
  -2.466        -14.678
  -2.464        -14.690
  -2.462        -14.702
  -2.459        -14.714
  -2.457        -14.726
  -2.455        -14.739
  -2.453        -14.751
  -2.451        -14.763
  -2.448        -14.776
  -2.446        -14.789
  -2.444        -14.801
  -2.442        -14.814
  -2.440        -14.827
  -2.438        -14.840
  -2.435        -14.853
  -2.433        -14.867
  -2.431        -14.880
  -2.429        -14.894
  -2.427        -14.907
  -2.425        -14.921
  -2.422        -14.935
  -2.420        -14.948
  -2.418        -14.962
  -2.416        -14.976
  -2.414        -14.991
  -2.412        -15.005
  -2.409        -15.019
  -2.407        -15.034
  -2.405        -15.049
  -2.403        -15.063
  -2.401        -15.078
  -2.398        -15.093
  -2.396        -15.108
  -2.394        -15.123
  -2.392        -15.138
  -2.390        -15.154
  -2.388        -15.169
  -2.386        -15.185
  -2.383        -15.200
  -2.381        -15.216
  -2.379        -15.232
  -2.377        -15.248
  -2.375        -15.264
  -2.372        -15.280
  -2.370        -15.297
  -2.368        -15.313
  -2.366        -15.330
  -2.364        -15.346
  -2.362        -15.363
  -2.359        -15.380
  -2.357        -15.397
  -2.355        -15.414
  -2.353        -15.432
  -2.351        -15.449
  -2.349        -15.467
  -2.346        -15.484
  -2.344        -15.502
  -2.342        -15.520
  -2.340        -15.538
  -2.338        -15.556
  -2.336        -15.574
  -2.333        -15.592
  -2.331        -15.611
  -2.329        -15.630
  -2.327        -15.648
  -2.325        -15.667
  -2.323        -15.686
  -2.320        -15.705
  -2.318        -15.725
  -2.316        -15.744
  -2.314        -15.763
  -2.312        -15.783
  -2.309        -15.803
  -2.307        -15.823
  -2.305        -15.843
  -2.303        -15.863
  -2.301        -15.883
  -2.299        -15.904
  -2.297        -15.924
  -2.294        -15.945
  -2.292        -15.966
  -2.290        -15.987
  -2.288        -16.008
  -2.286        -16.029
  -2.283        -16.051
  -2.281        -16.072
  -2.279        -16.094
  -2.277        -16.116
  -2.275        -16.138
  -2.273        -16.160
  -2.270        -16.182
  -2.268        -16.204
  -2.266        -16.227
  -2.264        -16.250
  -2.262        -16.272
  -2.260        -16.295
  -2.257        -16.318
  -2.255        -16.342
  -2.253        -16.365
  -2.251        -16.389
  -2.249        -16.412
  -2.247        -16.436
  -2.244        -16.460
  -2.242        -16.485
  -2.240        -16.509
  -2.238        -16.533
  -2.236        -16.558
  -2.234        -16.583
  -2.231        -16.608
  -2.229        -16.633
  -2.227        -16.658
  -2.225        -16.683
  -2.223        -16.709
  -2.220        -16.735
  -2.218        -16.760
  -2.216        -16.786
  -2.214        -16.813
  -2.212        -16.839
  -2.210        -16.865
  -2.207        -16.892
  -2.205        -16.919
  -2.203        -16.946
  -2.201        -16.973
  -2.199        -17.000
  -2.197        -17.028
  -2.194        -17.055
  -2.192        -17.083
  -2.190        -17.111
  -2.188        -17.139
  -2.186        -17.168
  -2.184        -17.196
  -2.181        -17.225
  -2.179        -17.253
  -2.177        -17.282
  -2.175        -17.311
  -2.173        -17.341
  -2.171        -17.370
  -2.168        -17.400
  -2.166        -17.429
  -2.164        -17.459
  -2.162        -17.489
  -2.160        -17.519
  -2.158        -17.550
  -2.155        -17.580
  -2.153        -17.611
  -2.151        -17.641
  -2.149        -17.672
  -2.147        -17.703
  -2.145        -17.734
  -2.142        -17.766
  -2.140        -17.797
  -2.138        -17.828
  -2.136        -17.860
  -2.134        -17.891
  -2.131        -17.923
  -2.129        -17.955
  -2.127        -17.987
  -2.125        -18.019
  -2.123        -18.051
  -2.121        -18.082
  -2.118        -18.115
  -2.116        -18.146
  -2.114        -18.178
  -2.112        -18.210
  -2.110        -18.242
  -2.108        -18.273
  -2.105        -18.305
  -2.103        -18.336
  -2.101        -18.367
  -2.099        -18.398
  -2.097        -18.429
  -2.095        -18.459
  -2.092        -18.489
  -2.090        -18.519
  -2.088        -18.548
  -2.086        -18.577
  -2.084        -18.605
  -2.082        -18.633
  -2.079        -18.660
  -2.077        -18.686
  -2.075        -18.712
  -2.073        -18.737
  -2.071        -18.761
  -2.069        -18.784
  -2.066        -18.807
  -2.064        -18.828
  -2.062        -18.849
  -2.060        -18.868
  -2.058        -18.887
  -2.056        -18.904
  -2.053        -18.921
  -2.051        -18.936
  -2.049        -18.950
  -2.047        -18.963
  -2.045        -18.975
  -2.043        -18.987
  -2.040        -18.997
  -2.038        -19.006
  -2.036        -19.014
  -2.034        -19.021
  -2.032        -19.027
  -2.029        -19.033
  -2.027        -19.038
  -2.025        -19.042
  -2.023        -19.045
  -2.021        -19.048
  -2.019        -19.050
  -2.016        -19.051
  -2.014        -19.052
  -2.012        -19.052
  -2.010        -19.052
  -2.008        -19.052
  -2.006        -19.051
  -2.003        -19.050
  -2.001        -19.048
  -1.999        -19.047
  -1.997        -19.045
  -1.995        -19.042
  -1.993        -19.040
  -1.990        -19.037
  -1.988        -19.036
  -1.986        -19.038
  -1.984        -19.040
  -1.982        -19.042
  -1.980        -19.044
  -1.977        -19.045
  -1.975        -19.047
  -1.973        -19.048
  -1.971        -19.050
  -1.969        -19.051
  -1.967        -19.053
  -1.964        -19.054
  -1.962        -19.055
  -1.960        -19.056
  -1.958        -19.058
  -1.956        -19.059
  -1.953        -19.060
  -1.951        -19.061
  -1.949        -19.062
