# log Energy    log Jnu
# (eV)          (ergs/s/cm2/Hz/Sr)
  -6.864        -20.421
  -6.820        -20.334
  -6.777        -20.247
  -6.734        -20.160
  -6.690        -20.073
  -6.647        -19.986
  -6.603        -19.899
  -6.560        -19.813
  -6.516        -19.726
  -6.473        -19.639
  -6.430        -19.552
  -6.386        -19.465
  -6.343        -19.378
  -6.299        -19.292
  -6.256        -19.205
  -6.212        -19.118
  -6.169        -19.031
  -6.126        -18.944
  -6.082        -18.857
  -6.039        -18.771
  -5.995        -18.684
  -5.952        -18.597
  -5.908        -18.510
  -5.865        -18.424
  -5.822        -18.336
  -5.778        -18.250
  -5.735        -18.163
  -5.691        -18.076
  -5.648        -17.989
  -5.605        -17.902
  -5.561        -17.816
  -5.518        -17.729
  -5.474        -17.642
  -5.431        -17.555
  -5.387        -17.469
  -5.344        -17.382
  -5.300        -17.295
  -5.257        -17.208
  -5.214        -17.122
  -5.170        -17.035
  -5.127        -16.948
  -5.083        -16.862
  -5.040        -16.775
  -4.996        -16.688
  -4.953        -16.602
  -4.910        -16.515
  -4.866        -16.429
  -4.823        -16.342
  -4.779        -16.256
  -4.736        -16.169
  -4.692        -16.083
  -4.649        -15.997
  -4.606        -15.911
  -4.562        -15.825
  -4.519        -15.739
  -4.475        -15.653
  -4.432        -15.567
  -4.388        -15.481
  -4.345        -15.395
  -4.302        -15.310
  -4.258        -15.224
  -4.215        -15.139
  -4.171        -15.054
  -4.128        -14.969
  -4.084        -14.884
  -4.041        -14.800
  -3.998        -14.715
  -3.954        -14.631
  -3.911        -14.548
  -3.867        -14.465
  -3.824        -14.382
  -3.781        -14.299
  -3.737        -14.217
  -3.693        -14.136
  -3.650        -14.055
  -3.607        -13.975
  -3.584        -13.937
  -3.582        -13.927
  -3.580        -13.926
  -3.577        -13.922
  -3.575        -13.919
  -3.573        -13.915
  -3.571        -13.910
  -3.569        -13.907
  -3.567        -13.903
  -3.564        -13.899
  -3.562        -13.895
  -3.560        -13.891
  -3.558        -13.887
  -3.556        -13.883
  -3.554        -13.879
  -3.551        -13.875
  -3.549        -13.871
  -3.547        -13.867
  -3.545        -13.863
  -3.543        -13.859
  -3.540        -13.855
  -3.538        -13.852
  -3.536        -13.847
  -3.534        -13.843
  -3.532        -13.840
  -3.530        -13.836
  -3.528        -13.832
  -3.525        -13.828
  -3.523        -13.824
  -3.521        -13.820
  -3.519        -13.816
  -3.517        -13.812
  -3.514        -13.808
  -3.512        -13.805
  -3.510        -13.800
  -3.508        -13.797
  -3.506        -13.793
  -3.504        -13.789
  -3.502        -13.785
  -3.499        -13.781
  -3.497        -13.777
  -3.495        -13.773
  -3.493        -13.769
  -3.491        -13.766
  -3.488        -13.762
  -3.486        -13.758
  -3.484        -13.754
  -3.482        -13.750
  -3.480        -13.746
  -3.477        -13.742
  -3.475        -13.738
  -3.473        -13.735
  -3.471        -13.731
  -3.469        -13.727
  -3.467        -13.723
  -3.464        -13.719
  -3.462        -13.715
  -3.460        -13.712
  -3.458        -13.708
  -3.456        -13.704
  -3.454        -13.700
  -3.451        -13.696
  -3.449        -13.692
  -3.447        -13.689
  -3.445        -13.685
  -3.443        -13.681
  -3.441        -13.677
  -3.438        -13.673
  -3.436        -13.669
  -3.434        -13.666
  -3.432        -13.662
  -3.430        -13.658
  -3.428        -13.654
  -3.425        -13.650
  -3.423        -13.647
  -3.421        -13.643
  -3.419        -13.639
  -3.417        -13.635
  -3.415        -13.631
  -3.412        -13.628
  -3.410        -13.624
  -3.408        -13.620
  -3.406        -13.616
  -3.404        -13.612
  -3.402        -13.609
  -3.399        -13.605
  -3.397        -13.601
  -3.395        -13.597
  -3.393        -13.594
  -3.391        -13.590
  -3.389        -13.586
  -3.386        -13.583
  -3.384        -13.579
  -3.382        -13.575
  -3.380        -13.571
  -3.378        -13.568
  -3.376        -13.564
  -3.373        -13.560
  -3.371        -13.556
  -3.369        -13.553
  -3.367        -13.549
  -3.365        -13.545
  -3.362        -13.542
  -3.360        -13.538
  -3.358        -13.534
  -3.356        -13.530
  -3.354        -13.527
  -3.352        -13.523
  -3.349        -13.519
  -3.347        -13.516
  -3.345        -13.512
  -3.343        -13.508
  -3.341        -13.505
  -3.339        -13.501
  -3.336        -13.497
  -3.334        -13.494
  -3.332        -13.490
  -3.330        -13.486
  -3.328        -13.483
  -3.326        -13.479
  -3.323        -13.475
  -3.321        -13.472
  -3.319        -13.468
  -3.317        -13.464
  -3.315        -13.461
  -3.313        -13.457
  -3.310        -13.454
  -3.308        -13.450
  -3.306        -13.446
  -3.304        -13.443
  -3.302        -13.439
  -3.300        -13.436
  -3.297        -13.432
  -3.295        -13.428
  -3.293        -13.425
  -3.291        -13.421
  -3.289        -13.418
  -3.287        -13.414
  -3.284        -13.410
  -3.282        -13.407
  -3.280        -13.403
  -3.278        -13.400
  -3.276        -13.396
  -3.273        -13.393
  -3.271        -13.389
  -3.269        -13.386
  -3.267        -13.382
  -3.265        -13.379
  -3.263        -13.375
  -3.260        -13.371
  -3.258        -13.368
  -3.256        -13.364
  -3.254        -13.361
  -3.252        -13.357
  -3.250        -13.354
  -3.247        -13.350
  -3.245        -13.347
  -3.243        -13.343
  -3.241        -13.340
  -3.239        -13.336
  -3.237        -13.333
  -3.234        -13.330
  -3.232        -13.326
  -3.230        -13.323
  -3.228        -13.319
  -3.226        -13.316
  -3.224        -13.312
  -3.221        -13.309
  -3.219        -13.305
  -3.217        -13.302
  -3.215        -13.299
  -3.213        -13.295
  -3.211        -13.292
  -3.208        -13.288
  -3.206        -13.285
  -3.204        -13.281
  -3.202        -13.278
  -3.200        -13.275
  -3.197        -13.272
  -3.195        -13.268
  -3.193        -13.265
  -3.191        -13.261
  -3.189        -13.258
  -3.187        -13.255
  -3.184        -13.251
  -3.182        -13.248
  -3.180        -13.245
  -3.178        -13.241
  -3.176        -13.238
  -3.174        -13.235
  -3.171        -13.231
  -3.169        -13.228
  -3.167        -13.225
  -3.165        -13.221
  -3.163        -13.218
  -3.161        -13.215
  -3.158        -13.211
  -3.156        -13.208
  -3.154        -13.205
  -3.152        -13.202
  -3.150        -13.198
  -3.148        -13.195
  -3.145        -13.192
  -3.143        -13.189
  -3.141        -13.185
  -3.139        -13.182
  -3.137        -13.179
  -3.135        -13.176
  -3.132        -13.172
  -3.130        -13.169
  -3.128        -13.166
  -3.126        -13.163
  -3.124        -13.160
  -3.122        -13.156
  -3.119        -13.154
  -3.117        -13.150
  -3.115        -13.147
  -3.113        -13.144
  -3.111        -13.141
  -3.108        -13.138
  -3.106        -13.135
  -3.104        -13.132
  -3.102        -13.128
  -3.100        -13.125
  -3.098        -13.122
  -3.095        -13.119
  -3.093        -13.116
  -3.091        -13.113
  -3.089        -13.110
  -3.087        -13.107
  -3.085        -13.104
  -3.082        -13.101
  -3.080        -13.098
  -3.078        -13.094
  -3.076        -13.092
  -3.074        -13.089
  -3.072        -13.086
  -3.069        -13.082
  -3.067        -13.080
  -3.065        -13.077
  -3.063        -13.074
  -3.061        -13.071
  -3.059        -13.068
  -3.056        -13.065
  -3.054        -13.062
  -3.052        -13.059
  -3.050        -13.056
  -3.048        -13.053
  -3.046        -13.050
  -3.043        -13.047
  -3.041        -13.044
  -3.039        -13.041
  -3.037        -13.038
  -3.035        -13.036
  -3.032        -13.033
  -3.030        -13.030
  -3.028        -13.027
  -3.026        -13.024
  -3.024        -13.021
  -3.022        -13.019
  -3.019        -13.016
  -3.017        -13.013
  -3.015        -13.010
  -3.013        -13.007
  -3.011        -13.005
  -3.009        -13.002
  -3.006        -12.999
  -3.004        -12.996
  -3.002        -12.993
  -3.000        -12.991
  -2.998        -12.988
  -2.996        -12.985
  -2.993        -12.983
  -2.991        -12.980
  -2.989        -12.977
  -2.987        -12.975
  -2.985        -12.972
  -2.983        -12.969
  -2.980        -12.967
  -2.978        -12.964
  -2.976        -12.961
  -2.974        -12.959
  -2.972        -12.956
  -2.970        -12.953
  -2.967        -12.951
  -2.965        -12.948
  -2.963        -12.946
  -2.961        -12.943
  -2.959        -12.941
  -2.956        -12.938
  -2.954        -12.936
  -2.952        -12.933
  -2.950        -12.931
  -2.948        -12.928
  -2.946        -12.926
  -2.944        -12.923
  -2.941        -12.921
  -2.939        -12.918
  -2.937        -12.916
  -2.935        -12.913
  -2.933        -12.911
  -2.930        -12.909
  -2.928        -12.906
  -2.926        -12.904
  -2.924        -12.901
  -2.922        -12.899
  -2.920        -12.897
  -2.917        -12.894
  -2.915        -12.892
  -2.913        -12.890
  -2.911        -12.888
  -2.909        -12.885
  -2.907        -12.883
  -2.904        -12.881
  -2.902        -12.878
  -2.900        -12.876
  -2.898        -12.874
  -2.896        -12.872
  -2.894        -12.870
  -2.891        -12.867
  -2.889        -12.865
  -2.887        -12.863
  -2.885        -12.861
  -2.883        -12.859
  -2.880        -12.857
  -2.878        -12.855
  -2.876        -12.853
  -2.874        -12.850
  -2.872        -12.848
  -2.870        -12.846
  -2.867        -12.844
  -2.865        -12.842
  -2.863        -12.840
  -2.861        -12.838
  -2.859        -12.836
  -2.857        -12.834
  -2.855        -12.832
  -2.852        -12.830
  -2.850        -12.828
  -2.848        -12.827
  -2.846        -12.825
  -2.843        -12.823
  -2.842        -12.821
  -2.839        -12.819
  -2.837        -12.817
  -2.835        -12.815
  -2.833        -12.814
  -2.831        -12.812
  -2.828        -12.810
  -2.826        -12.808
  -2.824        -12.806
  -2.822        -12.805
  -2.820        -12.803
  -2.817        -12.801
  -2.815        -12.800
  -2.813        -12.798
  -2.811        -12.797
  -2.809        -12.795
  -2.807        -12.793
  -2.805        -12.791
  -2.802        -12.790
  -2.800        -12.789
  -2.798        -12.787
  -2.796        -12.785
  -2.794        -12.784
  -2.792        -12.782
  -2.789        -12.781
  -2.787        -12.779
  -2.785        -12.778
  -2.783        -12.776
  -2.781        -12.775
  -2.779        -12.774
  -2.776        -12.772
  -2.774        -12.771
  -2.772        -12.769
  -2.770        -12.768
  -2.767        -12.767
  -2.765        -12.766
  -2.763        -12.765
  -2.761        -12.763
  -2.759        -12.762
  -2.757        -12.761
  -2.754        -12.760
  -2.753        -12.758
  -2.750        -12.757
  -2.748        -12.756
  -2.746        -12.755
  -2.744        -12.754
  -2.741        -12.753
  -2.739        -12.752
  -2.737        -12.751
  -2.735        -12.750
  -2.733        -12.749
  -2.731        -12.748
  -2.729        -12.747
  -2.726        -12.746
  -2.724        -12.745
  -2.722        -12.744
  -2.720        -12.743
  -2.718        -12.743
  -2.716        -12.741
  -2.713        -12.741
  -2.711        -12.740
  -2.709        -12.739
  -2.707        -12.738
  -2.705        -12.738
  -2.703        -12.737
  -2.700        -12.736
  -2.698        -12.736
  -2.696        -12.735
  -2.694        -12.735
  -2.692        -12.734
  -2.689        -12.733
  -2.687        -12.733
  -2.685        -12.732
  -2.683        -12.732
  -2.681        -12.731
  -2.679        -12.731
  -2.677        -12.731
  -2.674        -12.730
  -2.672        -12.730
  -2.670        -12.730
  -2.668        -12.729
  -2.666        -12.729
  -2.663        -12.729
  -2.661        -12.728
  -2.659        -12.728
  -2.657        -12.728
  -2.655        -12.728
  -2.653        -12.728
  -2.650        -12.728
  -2.648        -12.728
  -2.646        -12.727
  -2.644        -12.728
  -2.642        -12.727
  -2.640        -12.727
  -2.637        -12.727
  -2.635        -12.728
  -2.633        -12.728
  -2.631        -12.728
  -2.629        -12.728
  -2.626        -12.728
  -2.624        -12.728
  -2.622        -12.729
  -2.620        -12.729
  -2.618        -12.729
  -2.616        -12.729
  -2.614        -12.730
  -2.611        -12.730
  -2.609        -12.731
  -2.607        -12.731
  -2.605        -12.731
  -2.603        -12.732
  -2.600        -12.732
  -2.598        -12.733
  -2.596        -12.734
  -2.594        -12.734
  -2.592        -12.735
  -2.590        -12.736
  -2.587        -12.736
  -2.585        -12.737
  -2.583        -12.738
  -2.581        -12.739
  -2.579        -12.740
  -2.577        -12.740
  -2.574        -12.741
  -2.572        -12.742
  -2.570        -12.743
  -2.568        -12.744
  -2.566        -12.745
  -2.564        -12.746
  -2.561        -12.748
  -2.559        -12.749
  -2.557        -12.750
  -2.555        -12.751
  -2.553        -12.752
  -2.551        -12.753
  -2.548        -12.755
  -2.546        -12.756
  -2.544        -12.757
  -2.542        -12.759
  -2.540        -12.760
  -2.538        -12.762
  -2.535        -12.764
  -2.533        -12.765
  -2.531        -12.766
  -2.529        -12.768
  -2.527        -12.770
  -2.525        -12.771
  -2.522        -12.773
  -2.520        -12.775
  -2.518        -12.777
  -2.516        -12.779
  -2.514        -12.781
  -2.511        -12.783
  -2.509        -12.784
  -2.507        -12.787
  -2.505        -12.789
  -2.503        -12.791
  -2.501        -12.793
  -2.498        -12.795
  -2.496        -12.797
  -2.494        -12.799
  -2.492        -12.802
  -2.490        -12.804
  -2.488        -12.806
  -2.485        -12.809
  -2.483        -12.811
  -2.481        -12.814
  -2.479        -12.816
  -2.477        -12.819
  -2.475        -12.821
  -2.472        -12.824
  -2.470        -12.827
  -2.468        -12.830
  -2.466        -12.832
  -2.464        -12.835
  -2.462        -12.838
  -2.459        -12.841
  -2.457        -12.844
  -2.455        -12.847
  -2.453        -12.850
  -2.451        -12.853
  -2.448        -12.856
  -2.446        -12.860
  -2.444        -12.863
  -2.442        -12.866
  -2.440        -12.869
  -2.438        -12.873
  -2.435        -12.876
  -2.433        -12.880
  -2.431        -12.883
  -2.429        -12.887
  -2.427        -12.891
  -2.425        -12.894
  -2.422        -12.898
  -2.420        -12.902
  -2.418        -12.906
  -2.416        -12.909
  -2.414        -12.913
  -2.412        -12.917
  -2.409        -12.921
  -2.407        -12.925
  -2.405        -12.929
  -2.403        -12.934
  -2.401        -12.938
  -2.398        -12.942
  -2.396        -12.946
  -2.394        -12.951
  -2.392        -12.955
  -2.390        -12.960
  -2.388        -12.964
  -2.386        -12.969
  -2.383        -12.974
  -2.381        -12.978
  -2.379        -12.983
  -2.377        -12.988
  -2.375        -12.993
  -2.372        -12.998
  -2.370        -13.002
  -2.368        -13.008
  -2.366        -13.013
  -2.364        -13.018
  -2.362        -13.023
  -2.359        -13.028
  -2.357        -13.034
  -2.355        -13.039
  -2.353        -13.044
  -2.351        -13.050
  -2.349        -13.056
  -2.346        -13.061
  -2.344        -13.067
  -2.342        -13.072
  -2.340        -13.078
  -2.338        -13.084
  -2.336        -13.090
  -2.333        -13.096
  -2.331        -13.102
  -2.329        -13.108
  -2.327        -13.114
  -2.325        -13.121
  -2.323        -13.127
  -2.320        -13.133
  -2.318        -13.140
  -2.316        -13.146
  -2.314        -13.153
  -2.312        -13.159
  -2.309        -13.166
  -2.307        -13.172
  -2.305        -13.179
  -2.303        -13.186
  -2.301        -13.193
  -2.299        -13.200
  -2.297        -13.207
  -2.294        -13.214
  -2.292        -13.221
  -2.290        -13.229
  -2.288        -13.236
  -2.286        -13.243
  -2.283        -13.251
  -2.281        -13.258
  -2.279        -13.266
  -2.277        -13.274
  -2.275        -13.281
  -2.273        -13.289
  -2.270        -13.297
  -2.268        -13.305
  -2.266        -13.313
  -2.264        -13.321
  -2.262        -13.329
  -2.260        -13.338
  -2.257        -13.346
  -2.255        -13.354
  -2.253        -13.363
  -2.251        -13.371
  -2.249        -13.380
  -2.247        -13.389
  -2.244        -13.398
  -2.242        -13.406
  -2.240        -13.415
  -2.238        -13.424
  -2.236        -13.433
  -2.234        -13.443
  -2.231        -13.452
  -2.229        -13.461
  -2.227        -13.470
  -2.225        -13.480
  -2.223        -13.489
  -2.220        -13.499
  -2.218        -13.509
  -2.216        -13.519
  -2.214        -13.529
  -2.212        -13.538
  -2.210        -13.549
  -2.207        -13.559
  -2.205        -13.569
  -2.203        -13.579
  -2.201        -13.589
  -2.199        -13.600
  -2.197        -13.611
  -2.194        -13.621
  -2.192        -13.632
  -2.190        -13.643
  -2.188        -13.654
  -2.186        -13.665
  -2.184        -13.676
  -2.181        -13.687
  -2.179        -13.698
  -2.177        -13.709
  -2.175        -13.721
  -2.173        -13.732
  -2.171        -13.744
  -2.168        -13.755
  -2.166        -13.767
  -2.164        -13.779
  -2.162        -13.791
  -2.160        -13.803
  -2.158        -13.815
  -2.155        -13.827
  -2.153        -13.840
  -2.151        -13.852
  -2.149        -13.865
  -2.147        -13.877
  -2.145        -13.890
  -2.142        -13.903
  -2.140        -13.916
  -2.138        -13.929
  -2.136        -13.942
  -2.134        -13.955
  -2.131        -13.968
  -2.129        -13.982
  -2.127        -13.995
  -2.125        -14.009
  -2.123        -14.023
  -2.121        -14.036
  -2.118        -14.050
  -2.116        -14.064
  -2.114        -14.078
  -2.112        -14.093
  -2.110        -14.107
  -2.108        -14.121
  -2.105        -14.136
  -2.103        -14.150
  -2.101        -14.165
  -2.099        -14.180
  -2.097        -14.195
  -2.095        -14.210
  -2.092        -14.225
  -2.090        -14.240
  -2.088        -14.256
  -2.086        -14.271
  -2.084        -14.287
  -2.082        -14.302
  -2.079        -14.318
  -2.077        -14.334
  -2.075        -14.350
  -2.073        -14.366
  -2.071        -14.383
  -2.069        -14.399
  -2.066        -14.416
  -2.064        -14.432
  -2.062        -14.449
  -2.060        -14.466
  -2.058        -14.483
  -2.056        -14.500
  -2.053        -14.517
  -2.051        -14.534
  -2.049        -14.552
  -2.047        -14.569
  -2.045        -14.587
  -2.043        -14.605
  -2.040        -14.623
  -2.038        -14.641
  -2.036        -14.659
  -2.034        -14.677
  -2.032        -14.696
  -2.029        -14.714
  -2.027        -14.733
  -2.025        -14.752
  -2.023        -14.771
  -2.021        -14.790
  -2.019        -14.809
  -2.016        -14.828
  -2.014        -14.848
  -2.012        -14.867
  -2.010        -14.887
  -2.008        -14.907
  -2.006        -14.927
  -2.003        -14.947
  -2.001        -14.967
  -1.999        -14.987
  -1.997        -15.008
  -1.995        -15.028
  -1.993        -15.049
  -1.990        -15.070
  -1.988        -15.091
  -1.986        -15.112
  -1.984        -15.133
  -1.982        -15.155
  -1.980        -15.177
  -1.977        -15.198
  -1.975        -15.220
  -1.973        -15.242
  -1.971        -15.264
  -1.969        -15.287
  -1.967        -15.309
  -1.964        -15.332
  -1.962        -15.354
  -1.960        -15.377
  -1.958        -15.400
  -1.956        -15.424
  -1.953        -15.447
  -1.951        -15.470
  -1.949        -15.494
