# log Energy    log Jnu
# (eV)          (ergs/s/cm2/Hz/Sr)
  -6.864        -20.977
  -6.820        -20.890
  -6.777        -20.803
  -6.734        -20.716
  -6.690        -20.630
  -6.647        -20.543
  -6.603        -20.456
  -6.560        -20.369
  -6.516        -20.282
  -6.473        -20.196
  -6.430        -20.109
  -6.386        -20.022
  -6.343        -19.935
  -6.299        -19.848
  -6.256        -19.761
  -6.212        -19.675
  -6.169        -19.588
  -6.126        -19.501
  -6.082        -19.414
  -6.039        -19.328
  -5.995        -19.241
  -5.952        -19.154
  -5.908        -19.067
  -5.865        -18.981
  -5.822        -18.894
  -5.778        -18.807
  -5.735        -18.721
  -5.691        -18.634
  -5.648        -18.547
  -5.605        -18.460
  -5.561        -18.374
  -5.518        -18.287
  -5.474        -18.201
  -5.431        -18.114
  -5.387        -18.028
  -5.344        -17.941
  -5.300        -17.855
  -5.257        -17.769
  -5.214        -17.682
  -5.170        -17.596
  -5.127        -17.510
  -5.083        -17.424
  -5.040        -17.338
  -4.996        -17.252
  -4.953        -17.166
  -4.910        -17.080
  -4.866        -16.995
  -4.823        -16.909
  -4.779        -16.824
  -4.736        -16.739
  -4.692        -16.654
  -4.649        -16.569
  -4.606        -16.484
  -4.562        -16.400
  -4.519        -16.316
  -4.475        -16.233
  -4.432        -16.149
  -4.388        -16.066
  -4.345        -15.984
  -4.302        -15.902
  -4.258        -15.820
  -4.215        -15.739
  -4.171        -15.659
  -4.128        -15.579
  -4.084        -15.500
  -4.041        -15.423
  -3.998        -15.346
  -3.954        -15.270
  -3.911        -15.195
  -3.867        -15.122
  -3.824        -15.051
  -3.781        -14.981
  -3.737        -14.913
  -3.693        -14.848
  -3.650        -14.784
  -3.607        -14.725
  -3.584        -14.698
  -3.582        -14.690
  -3.580        -14.689
  -3.577        -14.687
  -3.575        -14.684
  -3.573        -14.681
  -3.571        -14.678
  -3.569        -14.676
  -3.567        -14.673
  -3.564        -14.670
  -3.562        -14.667
  -3.560        -14.664
  -3.558        -14.662
  -3.556        -14.659
  -3.554        -14.656
  -3.551        -14.654
  -3.549        -14.651
  -3.547        -14.648
  -3.545        -14.646
  -3.543        -14.643
  -3.540        -14.640
  -3.538        -14.637
  -3.536        -14.635
  -3.534        -14.632
  -3.532        -14.630
  -3.530        -14.627
  -3.528        -14.624
  -3.525        -14.622
  -3.523        -14.619
  -3.521        -14.617
  -3.519        -14.614
  -3.517        -14.612
  -3.514        -14.609
  -3.512        -14.607
  -3.510        -14.604
  -3.508        -14.601
  -3.506        -14.599
  -3.504        -14.596
  -3.502        -14.594
  -3.499        -14.592
  -3.497        -14.589
  -3.495        -14.587
  -3.493        -14.584
  -3.491        -14.582
  -3.488        -14.579
  -3.486        -14.577
  -3.484        -14.574
  -3.482        -14.572
  -3.480        -14.570
  -3.477        -14.568
  -3.475        -14.565
  -3.473        -14.563
  -3.471        -14.560
  -3.469        -14.558
  -3.467        -14.556
  -3.464        -14.554
  -3.462        -14.551
  -3.460        -14.549
  -3.458        -14.547
  -3.456        -14.545
  -3.454        -14.542
  -3.451        -14.540
  -3.449        -14.538
  -3.447        -14.536
  -3.445        -14.534
  -3.443        -14.531
  -3.441        -14.529
  -3.438        -14.527
  -3.436        -14.525
  -3.434        -14.523
  -3.432        -14.521
  -3.430        -14.519
  -3.428        -14.517
  -3.425        -14.515
  -3.423        -14.513
  -3.421        -14.511
  -3.419        -14.509
  -3.417        -14.507
  -3.415        -14.505
  -3.412        -14.503
  -3.410        -14.501
  -3.408        -14.499
  -3.406        -14.497
  -3.404        -14.495
  -3.402        -14.493
  -3.399        -14.491
  -3.397        -14.489
  -3.395        -14.487
  -3.393        -14.486
  -3.391        -14.484
  -3.389        -14.482
  -3.386        -14.480
  -3.384        -14.479
  -3.382        -14.477
  -3.380        -14.475
  -3.378        -14.473
  -3.376        -14.472
  -3.373        -14.470
  -3.371        -14.468
  -3.369        -14.467
  -3.367        -14.465
  -3.365        -14.463
  -3.362        -14.462
  -3.360        -14.460
  -3.358        -14.458
  -3.356        -14.457
  -3.354        -14.455
  -3.352        -14.454
  -3.349        -14.452
  -3.347        -14.451
  -3.345        -14.449
  -3.343        -14.448
  -3.341        -14.447
  -3.339        -14.445
  -3.336        -14.444
  -3.334        -14.442
  -3.332        -14.441
  -3.330        -14.440
  -3.328        -14.438
  -3.326        -14.437
  -3.323        -14.436
  -3.321        -14.434
  -3.319        -14.433
  -3.317        -14.432
  -3.315        -14.431
  -3.313        -14.429
  -3.310        -14.428
  -3.308        -14.427
  -3.306        -14.426
  -3.304        -14.425
  -3.302        -14.424
  -3.300        -14.423
  -3.297        -14.422
  -3.295        -14.420
  -3.293        -14.419
  -3.291        -14.418
  -3.289        -14.417
  -3.287        -14.416
  -3.284        -14.416
  -3.282        -14.415
  -3.280        -14.414
  -3.278        -14.413
  -3.276        -14.412
  -3.273        -14.411
  -3.271        -14.410
  -3.269        -14.410
  -3.267        -14.409
  -3.265        -14.408
  -3.263        -14.407
  -3.260        -14.407
  -3.258        -14.406
  -3.256        -14.405
  -3.254        -14.405
  -3.252        -14.404
  -3.250        -14.403
  -3.247        -14.403
  -3.245        -14.402
  -3.243        -14.402
  -3.241        -14.401
  -3.239        -14.401
  -3.237        -14.400
  -3.234        -14.400
  -3.232        -14.399
  -3.230        -14.399
  -3.228        -14.399
  -3.226        -14.398
  -3.224        -14.398
  -3.221        -14.398
  -3.219        -14.398
  -3.217        -14.397
  -3.215        -14.397
  -3.213        -14.397
  -3.211        -14.397
  -3.208        -14.397
  -3.206        -14.396
  -3.204        -14.396
  -3.202        -14.396
  -3.200        -14.396
  -3.197        -14.396
  -3.195        -14.396
  -3.193        -14.396
  -3.191        -14.396
  -3.189        -14.397
  -3.187        -14.397
  -3.184        -14.397
  -3.182        -14.397
  -3.180        -14.397
  -3.178        -14.397
  -3.176        -14.398
  -3.174        -14.398
  -3.171        -14.398
  -3.169        -14.399
  -3.167        -14.399
  -3.165        -14.400
  -3.163        -14.400
  -3.161        -14.401
  -3.158        -14.401
  -3.156        -14.402
  -3.154        -14.402
  -3.152        -14.403
  -3.150        -14.403
  -3.148        -14.404
  -3.145        -14.405
  -3.143        -14.405
  -3.141        -14.406
  -3.139        -14.407
  -3.137        -14.408
  -3.135        -14.409
  -3.132        -14.410
  -3.130        -14.410
  -3.128        -14.411
  -3.126        -14.412
  -3.124        -14.413
  -3.122        -14.414
  -3.119        -14.415
  -3.117        -14.417
  -3.115        -14.418
  -3.113        -14.419
  -3.111        -14.420
  -3.108        -14.421
  -3.106        -14.423
  -3.104        -14.424
  -3.102        -14.425
  -3.100        -14.427
  -3.098        -14.428
  -3.095        -14.430
  -3.093        -14.431
  -3.091        -14.433
  -3.089        -14.434
  -3.087        -14.436
  -3.085        -14.438
  -3.082        -14.439
  -3.080        -14.441
  -3.078        -14.443
  -3.076        -14.444
  -3.074        -14.446
  -3.072        -14.448
  -3.069        -14.450
  -3.067        -14.452
  -3.065        -14.454
  -3.063        -14.456
  -3.061        -14.458
  -3.059        -14.460
  -3.056        -14.462
  -3.054        -14.464
  -3.052        -14.467
  -3.050        -14.469
  -3.048        -14.471
  -3.046        -14.474
  -3.043        -14.476
  -3.041        -14.478
  -3.039        -14.481
  -3.037        -14.483
  -3.035        -14.486
  -3.032        -14.488
  -3.030        -14.491
  -3.028        -14.494
  -3.026        -14.497
  -3.024        -14.499
  -3.022        -14.502
  -3.019        -14.505
  -3.017        -14.508
  -3.015        -14.511
  -3.013        -14.514
  -3.011        -14.517
  -3.009        -14.520
  -3.006        -14.523
  -3.004        -14.526
  -3.002        -14.529
  -3.000        -14.533
  -2.998        -14.536
  -2.996        -14.539
  -2.993        -14.543
  -2.991        -14.546
  -2.989        -14.550
  -2.987        -14.553
  -2.985        -14.557
  -2.983        -14.560
  -2.980        -14.564
  -2.978        -14.568
  -2.976        -14.572
  -2.974        -14.575
  -2.972        -14.579
  -2.970        -14.583
  -2.967        -14.587
  -2.965        -14.591
  -2.963        -14.595
  -2.961        -14.599
  -2.959        -14.604
  -2.956        -14.608
  -2.954        -14.612
  -2.952        -14.616
  -2.950        -14.621
  -2.948        -14.625
  -2.946        -14.630
  -2.944        -14.634
  -2.941        -14.639
  -2.939        -14.644
  -2.937        -14.648
  -2.935        -14.653
  -2.933        -14.658
  -2.930        -14.663
  -2.928        -14.668
  -2.926        -14.673
  -2.924        -14.678
  -2.922        -14.683
  -2.920        -14.688
  -2.917        -14.693
  -2.915        -14.698
  -2.913        -14.704
  -2.911        -14.709
  -2.909        -14.715
  -2.907        -14.720
  -2.904        -14.726
  -2.902        -14.731
  -2.900        -14.737
  -2.898        -14.743
  -2.896        -14.748
  -2.894        -14.754
  -2.891        -14.760
  -2.889        -14.766
  -2.887        -14.772
  -2.885        -14.779
  -2.883        -14.785
  -2.880        -14.791
  -2.878        -14.797
  -2.876        -14.804
  -2.874        -14.810
  -2.872        -14.816
  -2.870        -14.823
  -2.867        -14.830
  -2.865        -14.836
  -2.863        -14.843
  -2.861        -14.850
  -2.859        -14.857
  -2.857        -14.864
  -2.855        -14.870
  -2.852        -14.878
  -2.850        -14.885
  -2.848        -14.892
  -2.846        -14.899
  -2.843        -14.907
  -2.842        -14.914
  -2.839        -14.922
  -2.837        -14.929
  -2.835        -14.937
  -2.833        -14.945
  -2.831        -14.952
  -2.828        -14.960
  -2.826        -14.968
  -2.824        -14.976
  -2.822        -14.984
  -2.820        -14.992
  -2.817        -15.000
  -2.815        -15.009
  -2.813        -15.017
  -2.811        -15.025
  -2.809        -15.034
  -2.807        -15.042
  -2.805        -15.051
  -2.802        -15.060
  -2.800        -15.069
  -2.798        -15.078
  -2.796        -15.086
  -2.794        -15.095
  -2.792        -15.104
  -2.789        -15.114
  -2.787        -15.123
  -2.785        -15.132
  -2.783        -15.141
  -2.781        -15.151
  -2.779        -15.161
  -2.776        -15.170
  -2.774        -15.180
  -2.772        -15.190
  -2.770        -15.200
  -2.767        -15.210
  -2.765        -15.220
  -2.763        -15.230
  -2.761        -15.240
  -2.759        -15.251
  -2.757        -15.261
  -2.754        -15.272
  -2.753        -15.282
  -2.750        -15.293
  -2.748        -15.303
  -2.746        -15.314
  -2.744        -15.325
  -2.741        -15.336
  -2.739        -15.347
  -2.737        -15.358
  -2.735        -15.370
  -2.733        -15.381
  -2.731        -15.392
  -2.729        -15.404
  -2.726        -15.415
  -2.724        -15.427
  -2.722        -15.439
  -2.720        -15.451
  -2.718        -15.463
  -2.716        -15.475
  -2.713        -15.487
  -2.711        -15.499
  -2.709        -15.512
  -2.707        -15.524
  -2.705        -15.537
  -2.703        -15.549
  -2.700        -15.562
  -2.698        -15.575
  -2.696        -15.588
  -2.694        -15.601
  -2.692        -15.614
  -2.689        -15.627
  -2.687        -15.640
  -2.685        -15.654
  -2.683        -15.667
  -2.681        -15.681
  -2.679        -15.695
  -2.677        -15.709
  -2.674        -15.723
  -2.672        -15.737
  -2.670        -15.751
  -2.668        -15.765
  -2.666        -15.779
  -2.663        -15.794
  -2.661        -15.808
  -2.659        -15.823
  -2.657        -15.838
  -2.655        -15.852
  -2.653        -15.867
  -2.650        -15.883
  -2.648        -15.898
  -2.646        -15.913
  -2.644        -15.928
  -2.642        -15.944
  -2.640        -15.960
  -2.637        -15.975
  -2.635        -15.991
  -2.633        -16.007
  -2.631        -16.023
  -2.629        -16.039
  -2.626        -16.056
  -2.624        -16.072
  -2.622        -16.089
  -2.620        -16.105
  -2.618        -16.122
  -2.616        -16.139
  -2.614        -16.156
  -2.611        -16.173
  -2.609        -16.190
  -2.607        -16.207
  -2.605        -16.225
  -2.603        -16.243
  -2.600        -16.260
  -2.598        -16.278
  -2.596        -16.296
  -2.594        -16.314
  -2.592        -16.332
  -2.590        -16.351
  -2.587        -16.369
  -2.585        -16.388
  -2.583        -16.406
  -2.581        -16.425
  -2.579        -16.444
  -2.577        -16.463
  -2.574        -16.483
  -2.572        -16.502
  -2.570        -16.521
  -2.568        -16.541
  -2.566        -16.561
  -2.564        -16.580
  -2.561        -16.600
  -2.559        -16.621
  -2.557        -16.641
  -2.555        -16.661
  -2.553        -16.682
  -2.551        -16.702
  -2.548        -16.723
  -2.546        -16.744
  -2.544        -16.765
  -2.542        -16.786
  -2.540        -16.808
  -2.538        -16.829
  -2.535        -16.851
  -2.533        -16.873
  -2.531        -16.894
  -2.529        -16.916
  -2.527        -16.939
  -2.525        -16.961
  -2.522        -16.983
  -2.520        -17.006
  -2.518        -17.029
  -2.516        -17.052
  -2.514        -17.075
  -2.511        -17.098
  -2.509        -17.121
  -2.507        -17.145
  -2.505        -17.168
  -2.503        -17.192
  -2.501        -17.216
  -2.498        -17.240
  -2.496        -17.265
  -2.494        -17.289
  -2.492        -17.314
  -2.490        -17.338
  -2.488        -17.363
  -2.485        -17.388
  -2.483        -17.413
  -2.481        -17.439
  -2.479        -17.464
  -2.477        -17.490
  -2.475        -17.516
  -2.472        -17.542
  -2.470        -17.568
  -2.468        -17.594
  -2.466        -17.621
  -2.464        -17.648
  -2.462        -17.674
  -2.459        -17.701
  -2.457        -17.728
  -2.455        -17.756
  -2.453        -17.783
  -2.451        -17.811
  -2.448        -17.839
  -2.446        -17.867
  -2.444        -17.895
  -2.442        -17.923
  -2.440        -17.952
  -2.438        -17.980
  -2.435        -18.009
  -2.433        -18.038
  -2.431        -18.067
  -2.429        -18.097
  -2.427        -18.126
  -2.425        -18.156
  -2.422        -18.186
  -2.420        -18.216
  -2.418        -18.246
  -2.416        -18.277
  -2.414        -18.307
  -2.412        -18.338
  -2.409        -18.369
  -2.407        -18.400
  -2.405        -18.431
  -2.403        -18.463
  -2.401        -18.494
  -2.398        -18.526
  -2.396        -18.558
  -2.394        -18.590
  -2.392        -18.622
  -2.390        -18.655
  -2.388        -18.687
  -2.386        -18.720
  -2.383        -18.753
  -2.381        -18.786
  -2.379        -18.819
  -2.377        -18.853
  -2.375        -18.886
  -2.372        -18.920
  -2.370        -18.954
  -2.368        -18.988
  -2.366        -19.022
  -2.364        -19.056
  -2.362        -19.090
  -2.359        -19.125
  -2.357        -19.159
  -2.355        -19.194
  -2.353        -19.228
  -2.351        -19.263
  -2.349        -19.297
  -2.346        -19.332
  -2.344        -19.366
  -2.342        -19.401
  -2.340        -19.435
  -2.338        -19.470
  -2.336        -19.504
  -2.333        -19.538
  -2.331        -19.572
  -2.329        -19.606
  -2.327        -19.640
  -2.325        -19.673
  -2.323        -19.706
  -2.320        -19.738
  -2.318        -19.770
  -2.316        -19.801
  -2.314        -19.832
  -2.312        -19.863
  -2.309        -19.893
  -2.307        -19.922
  -2.305        -19.950
  -2.303        -19.977
  -2.301        -20.003
  -2.299        -20.029
  -2.297        -20.054
  -2.294        -20.077
  -2.292        -20.099
  -2.290        -20.120
  -2.288        -20.141
  -2.286        -20.159
  -2.283        -20.177
  -2.281        -20.194
  -2.279        -20.209
  -2.277        -20.223
  -2.275        -20.236
  -2.273        -20.247
  -2.270        -20.258
  -2.268        -20.267
  -2.266        -20.276
  -2.264        -20.283
  -2.262        -20.290
  -2.260        -20.295
  -2.257        -20.300
  -2.255        -20.304
  -2.253        -20.307
  -2.251        -20.310
  -2.249        -20.311
  -2.247        -20.313
  -2.244        -20.313
  -2.242        -20.313
  -2.240        -20.313
  -2.238        -20.312
  -2.236        -20.311
  -2.234        -20.310
  -2.231        -20.308
  -2.229        -20.306
  -2.227        -20.304
  -2.225        -20.301
  -2.223        -20.298
  -2.220        -20.296
  -2.218        -20.293
  -2.216        -20.289
  -2.214        -20.286
  -2.212        -20.283
  -2.210        -20.279
  -2.207        -20.275
  -2.205        -20.272
  -2.203        -20.268
  -2.201        -20.264
  -2.199        -20.260
  -2.197        -20.256
  -2.194        -20.252
  -2.192        -20.248
  -2.190        -20.244
  -2.188        -20.240
  -2.186        -20.235
  -2.184        -20.231
  -2.181        -20.227
  -2.179        -20.223
  -2.177        -20.219
  -2.175        -20.214
  -2.173        -20.210
  -2.171        -20.206
  -2.168        -20.202
  -2.166        -20.198
  -2.164        -20.193
  -2.162        -20.189
  -2.160        -20.184
  -2.158        -20.180
  -2.155        -20.176
  -2.153        -20.171
  -2.151        -20.167
  -2.149        -20.163
  -2.147        -20.158
  -2.145        -20.154
  -2.142        -20.150
  -2.140        -20.145
  -2.138        -20.141
  -2.136        -20.137
  -2.134        -20.133
  -2.131        -20.128
  -2.129        -20.124
  -2.127        -20.119
  -2.125        -20.115
  -2.123        -20.111
  -2.121        -20.107
  -2.118        -20.102
  -2.116        -20.098
  -2.114        -20.093
  -2.112        -20.089
  -2.110        -20.085
  -2.108        -20.080
  -2.105        -20.076
  -2.103        -20.072
  -2.101        -20.068
  -2.099        -20.063
  -2.097        -20.059
  -2.095        -20.054
  -2.092        -20.050
  -2.090        -20.046
  -2.088        -20.041
  -2.086        -20.037
  -2.084        -20.033
  -2.082        -20.028
  -2.079        -20.024
  -2.077        -20.020
  -2.075        -20.015
  -2.073        -20.011
  -2.071        -20.007
  -2.069        -20.002
  -2.066        -19.998
  -2.064        -19.994
  -2.062        -19.989
  -2.060        -19.985
  -2.058        -19.981
  -2.056        -19.976
  -2.053        -19.972
  -2.051        -19.968
  -2.049        -19.963
  -2.047        -19.959
  -2.045        -19.955
  -2.043        -19.950
  -2.040        -19.946
  -2.038        -19.942
  -2.036        -19.937
  -2.034        -19.933
  -2.032        -19.928
  -2.029        -19.924
  -2.027        -19.920
  -2.025        -19.915
  -2.023        -19.911
  -2.021        -19.907
  -2.019        -19.902
  -2.016        -19.898
  -2.014        -19.894
  -2.012        -19.889
  -2.010        -19.885
  -2.008        -19.881
  -2.006        -19.876
  -2.003        -19.872
  -2.001        -19.868
  -1.999        -19.863
  -1.997        -19.859
  -1.995        -19.855
  -1.993        -19.850
  -1.990        -19.846
  -1.988        -19.844
  -1.986        -19.844
  -1.984        -19.845
  -1.982        -19.846
  -1.980        -19.847
  -1.977        -19.848
  -1.975        -19.849
  -1.973        -19.850
  -1.971        -19.850
  -1.969        -19.851
  -1.967        -19.852
  -1.964        -19.853
  -1.962        -19.854
  -1.960        -19.855
  -1.958        -19.856
  -1.956        -19.856
  -1.953        -19.857
  -1.951        -19.858
  -1.949        -19.859
