# log Energy    log Jnu
# (eV)          (ergs/s/cm2/Hz/Sr)
  -6.864        -20.530
  -6.820        -20.443
  -6.777        -20.356
  -6.734        -20.269
  -6.690        -20.182
  -6.647        -20.096
  -6.603        -20.009
  -6.560        -19.922
  -6.516        -19.835
  -6.473        -19.748
  -6.430        -19.661
  -6.386        -19.574
  -6.343        -19.488
  -6.299        -19.401
  -6.256        -19.314
  -6.212        -19.227
  -6.169        -19.140
  -6.126        -19.053
  -6.082        -18.967
  -6.039        -18.880
  -5.995        -18.793
  -5.952        -18.706
  -5.908        -18.619
  -5.865        -18.533
  -5.822        -18.446
  -5.778        -18.359
  -5.735        -18.272
  -5.691        -18.185
  -5.648        -18.098
  -5.605        -18.012
  -5.561        -17.925
  -5.518        -17.838
  -5.474        -17.752
  -5.431        -17.665
  -5.387        -17.578
  -5.344        -17.491
  -5.300        -17.405
  -5.257        -17.318
  -5.214        -17.231
  -5.170        -17.145
  -5.127        -17.058
  -5.083        -16.972
  -5.040        -16.885
  -4.996        -16.798
  -4.953        -16.712
  -4.910        -16.625
  -4.866        -16.539
  -4.823        -16.453
  -4.779        -16.366
  -4.736        -16.280
  -4.692        -16.194
  -4.649        -16.108
  -4.606        -16.022
  -4.562        -15.936
  -4.519        -15.850
  -4.475        -15.764
  -4.432        -15.679
  -4.388        -15.593
  -4.345        -15.508
  -4.302        -15.423
  -4.258        -15.338
  -4.215        -15.253
  -4.171        -15.168
  -4.128        -15.084
  -4.084        -15.000
  -4.041        -14.916
  -3.998        -14.832
  -3.954        -14.749
  -3.911        -14.667
  -3.867        -14.584
  -3.824        -14.503
  -3.781        -14.422
  -3.737        -14.341
  -3.693        -14.261
  -3.650        -14.182
  -3.607        -14.105
  -3.584        -14.068
  -3.582        -14.058
  -3.580        -14.056
  -3.577        -14.053
  -3.575        -14.050
  -3.573        -14.046
  -3.571        -14.042
  -3.569        -14.038
  -3.567        -14.034
  -3.564        -14.030
  -3.562        -14.026
  -3.560        -14.022
  -3.558        -14.019
  -3.556        -14.015
  -3.554        -14.011
  -3.551        -14.007
  -3.549        -14.003
  -3.547        -14.000
  -3.545        -13.996
  -3.543        -13.992
  -3.540        -13.988
  -3.538        -13.984
  -3.536        -13.981
  -3.534        -13.977
  -3.532        -13.973
  -3.530        -13.969
  -3.528        -13.965
  -3.525        -13.962
  -3.523        -13.958
  -3.521        -13.954
  -3.519        -13.950
  -3.517        -13.946
  -3.514        -13.943
  -3.512        -13.939
  -3.510        -13.935
  -3.508        -13.931
  -3.506        -13.928
  -3.504        -13.924
  -3.502        -13.920
  -3.499        -13.916
  -3.497        -13.913
  -3.495        -13.909
  -3.493        -13.905
  -3.491        -13.901
  -3.488        -13.898
  -3.486        -13.894
  -3.484        -13.890
  -3.482        -13.886
  -3.480        -13.883
  -3.477        -13.879
  -3.475        -13.875
  -3.473        -13.872
  -3.471        -13.868
  -3.469        -13.864
  -3.467        -13.861
  -3.464        -13.857
  -3.462        -13.853
  -3.460        -13.850
  -3.458        -13.846
  -3.456        -13.842
  -3.454        -13.838
  -3.451        -13.835
  -3.449        -13.831
  -3.447        -13.827
  -3.445        -13.824
  -3.443        -13.820
  -3.441        -13.816
  -3.438        -13.813
  -3.436        -13.809
  -3.434        -13.806
  -3.432        -13.802
  -3.430        -13.798
  -3.428        -13.795
  -3.425        -13.791
  -3.423        -13.787
  -3.421        -13.784
  -3.419        -13.780
  -3.417        -13.776
  -3.415        -13.773
  -3.412        -13.769
  -3.410        -13.766
  -3.408        -13.762
  -3.406        -13.758
  -3.404        -13.755
  -3.402        -13.751
  -3.399        -13.748
  -3.397        -13.744
  -3.395        -13.740
  -3.393        -13.737
  -3.391        -13.733
  -3.389        -13.730
  -3.386        -13.726
  -3.384        -13.723
  -3.382        -13.719
  -3.380        -13.716
  -3.378        -13.712
  -3.376        -13.709
  -3.373        -13.705
  -3.371        -13.701
  -3.369        -13.698
  -3.367        -13.694
  -3.365        -13.691
  -3.362        -13.687
  -3.360        -13.684
  -3.358        -13.680
  -3.356        -13.677
  -3.354        -13.673
  -3.352        -13.670
  -3.349        -13.666
  -3.347        -13.663
  -3.345        -13.659
  -3.343        -13.656
  -3.341        -13.653
  -3.339        -13.649
  -3.336        -13.646
  -3.334        -13.642
  -3.332        -13.639
  -3.330        -13.635
  -3.328        -13.632
  -3.326        -13.628
  -3.323        -13.625
  -3.321        -13.622
  -3.319        -13.618
  -3.317        -13.615
  -3.315        -13.611
  -3.313        -13.608
  -3.310        -13.605
  -3.308        -13.601
  -3.306        -13.598
  -3.304        -13.594
  -3.302        -13.591
  -3.300        -13.588
  -3.297        -13.584
  -3.295        -13.581
  -3.293        -13.578
  -3.291        -13.574
  -3.289        -13.571
  -3.287        -13.568
  -3.284        -13.564
  -3.282        -13.561
  -3.280        -13.558
  -3.278        -13.554
  -3.276        -13.551
  -3.273        -13.548
  -3.271        -13.545
  -3.269        -13.541
  -3.267        -13.538
  -3.265        -13.535
  -3.263        -13.531
  -3.260        -13.528
  -3.258        -13.525
  -3.256        -13.522
  -3.254        -13.518
  -3.252        -13.515
  -3.250        -13.512
  -3.247        -13.509
  -3.245        -13.505
  -3.243        -13.502
  -3.241        -13.499
  -3.239        -13.496
  -3.237        -13.493
  -3.234        -13.490
  -3.232        -13.486
  -3.230        -13.483
  -3.228        -13.480
  -3.226        -13.477
  -3.224        -13.474
  -3.221        -13.470
  -3.219        -13.467
  -3.217        -13.464
  -3.215        -13.461
  -3.213        -13.458
  -3.211        -13.455
  -3.208        -13.452
  -3.206        -13.449
  -3.204        -13.446
  -3.202        -13.443
  -3.200        -13.439
  -3.197        -13.436
  -3.195        -13.433
  -3.193        -13.430
  -3.191        -13.427
  -3.189        -13.424
  -3.187        -13.421
  -3.184        -13.418
  -3.182        -13.415
  -3.180        -13.412
  -3.178        -13.409
  -3.176        -13.406
  -3.174        -13.403
  -3.171        -13.400
  -3.169        -13.397
  -3.167        -13.394
  -3.165        -13.391
  -3.163        -13.388
  -3.161        -13.385
  -3.158        -13.382
  -3.156        -13.380
  -3.154        -13.377
  -3.152        -13.374
  -3.150        -13.371
  -3.148        -13.368
  -3.145        -13.365
  -3.143        -13.362
  -3.141        -13.359
  -3.139        -13.356
  -3.137        -13.354
  -3.135        -13.351
  -3.132        -13.348
  -3.130        -13.345
  -3.128        -13.342
  -3.126        -13.339
  -3.124        -13.337
  -3.122        -13.334
  -3.119        -13.331
  -3.117        -13.328
  -3.115        -13.325
  -3.113        -13.323
  -3.111        -13.320
  -3.108        -13.317
  -3.106        -13.315
  -3.104        -13.312
  -3.102        -13.309
  -3.100        -13.307
  -3.098        -13.304
  -3.095        -13.301
  -3.093        -13.299
  -3.091        -13.296
  -3.089        -13.293
  -3.087        -13.291
  -3.085        -13.288
  -3.082        -13.285
  -3.080        -13.283
  -3.078        -13.280
  -3.076        -13.278
  -3.074        -13.275
  -3.072        -13.273
  -3.069        -13.270
  -3.067        -13.267
  -3.065        -13.265
  -3.063        -13.262
  -3.061        -13.260
  -3.059        -13.257
  -3.056        -13.255
  -3.054        -13.252
  -3.052        -13.250
  -3.050        -13.248
  -3.048        -13.245
  -3.046        -13.243
  -3.043        -13.240
  -3.041        -13.238
  -3.039        -13.236
  -3.037        -13.233
  -3.035        -13.231
  -3.032        -13.228
  -3.030        -13.226
  -3.028        -13.224
  -3.026        -13.221
  -3.024        -13.219
  -3.022        -13.216
  -3.019        -13.214
  -3.017        -13.212
  -3.015        -13.210
  -3.013        -13.207
  -3.011        -13.205
  -3.009        -13.203
  -3.006        -13.201
  -3.004        -13.199
  -3.002        -13.196
  -3.000        -13.194
  -2.998        -13.192
  -2.996        -13.190
  -2.993        -13.188
  -2.991        -13.186
  -2.989        -13.184
  -2.987        -13.181
  -2.985        -13.179
  -2.983        -13.177
  -2.980        -13.175
  -2.978        -13.173
  -2.976        -13.171
  -2.974        -13.169
  -2.972        -13.167
  -2.970        -13.165
  -2.967        -13.163
  -2.965        -13.161
  -2.963        -13.159
  -2.961        -13.157
  -2.959        -13.155
  -2.956        -13.153
  -2.954        -13.152
  -2.952        -13.150
  -2.950        -13.148
  -2.948        -13.146
  -2.946        -13.144
  -2.944        -13.142
  -2.941        -13.140
  -2.939        -13.139
  -2.937        -13.137
  -2.935        -13.135
  -2.933        -13.134
  -2.930        -13.132
  -2.928        -13.130
  -2.926        -13.128
  -2.924        -13.127
  -2.922        -13.125
  -2.920        -13.123
  -2.917        -13.122
  -2.915        -13.120
  -2.913        -13.119
  -2.911        -13.117
  -2.909        -13.115
  -2.907        -13.114
  -2.904        -13.112
  -2.902        -13.111
  -2.900        -13.109
  -2.898        -13.108
  -2.896        -13.106
  -2.894        -13.105
  -2.891        -13.104
  -2.889        -13.102
  -2.887        -13.101
  -2.885        -13.099
  -2.883        -13.098
  -2.880        -13.097
  -2.878        -13.095
  -2.876        -13.094
  -2.874        -13.093
  -2.872        -13.091
  -2.870        -13.090
  -2.867        -13.089
  -2.865        -13.088
  -2.863        -13.087
  -2.861        -13.085
  -2.859        -13.085
  -2.857        -13.083
  -2.855        -13.082
  -2.852        -13.081
  -2.850        -13.080
  -2.848        -13.079
  -2.846        -13.078
  -2.843        -13.077
  -2.842        -13.076
  -2.839        -13.075
  -2.837        -13.074
  -2.835        -13.073
  -2.833        -13.072
  -2.831        -13.071
  -2.828        -13.071
  -2.826        -13.070
  -2.824        -13.069
  -2.822        -13.068
  -2.820        -13.067
  -2.817        -13.066
  -2.815        -13.066
  -2.813        -13.065
  -2.811        -13.065
  -2.809        -13.063
  -2.807        -13.063
  -2.805        -13.062
  -2.802        -13.062
  -2.800        -13.061
  -2.798        -13.061
  -2.796        -13.060
  -2.794        -13.060
  -2.792        -13.059
  -2.789        -13.059
  -2.787        -13.058
  -2.785        -13.058
  -2.783        -13.057
  -2.781        -13.057
  -2.779        -13.057
  -2.776        -13.057
  -2.774        -13.056
  -2.772        -13.056
  -2.770        -13.056
  -2.767        -13.056
  -2.765        -13.055
  -2.763        -13.055
  -2.761        -13.055
  -2.759        -13.055
  -2.757        -13.055
  -2.754        -13.055
  -2.753        -13.055
  -2.750        -13.055
  -2.748        -13.055
  -2.746        -13.055
  -2.744        -13.055
  -2.741        -13.055
  -2.739        -13.055
  -2.737        -13.055
  -2.735        -13.056
  -2.733        -13.056
  -2.731        -13.056
  -2.729        -13.056
  -2.726        -13.057
  -2.724        -13.057
  -2.722        -13.057
  -2.720        -13.058
  -2.718        -13.058
  -2.716        -13.059
  -2.713        -13.059
  -2.711        -13.060
  -2.709        -13.060
  -2.707        -13.061
  -2.705        -13.061
  -2.703        -13.062
  -2.700        -13.063
  -2.698        -13.063
  -2.696        -13.064
  -2.694        -13.065
  -2.692        -13.066
  -2.689        -13.067
  -2.687        -13.067
  -2.685        -13.068
  -2.683        -13.069
  -2.681        -13.070
  -2.679        -13.071
  -2.677        -13.072
  -2.674        -13.073
  -2.672        -13.074
  -2.670        -13.075
  -2.668        -13.076
  -2.666        -13.077
  -2.663        -13.079
  -2.661        -13.080
  -2.659        -13.081
  -2.657        -13.083
  -2.655        -13.084
  -2.653        -13.085
  -2.650        -13.087
  -2.648        -13.088
  -2.646        -13.090
  -2.644        -13.091
  -2.642        -13.093
  -2.640        -13.094
  -2.637        -13.096
  -2.635        -13.098
  -2.633        -13.100
  -2.631        -13.101
  -2.629        -13.103
  -2.626        -13.105
  -2.624        -13.107
  -2.622        -13.109
  -2.620        -13.110
  -2.618        -13.113
  -2.616        -13.115
  -2.614        -13.117
  -2.611        -13.119
  -2.609        -13.121
  -2.607        -13.123
  -2.605        -13.125
  -2.603        -13.128
  -2.600        -13.130
  -2.598        -13.132
  -2.596        -13.135
  -2.594        -13.137
  -2.592        -13.139
  -2.590        -13.142
  -2.587        -13.145
  -2.585        -13.147
  -2.583        -13.150
  -2.581        -13.152
  -2.579        -13.155
  -2.577        -13.158
  -2.574        -13.161
  -2.572        -13.164
  -2.570        -13.166
  -2.568        -13.169
  -2.566        -13.172
  -2.564        -13.175
  -2.561        -13.178
  -2.559        -13.182
  -2.557        -13.185
  -2.555        -13.188
  -2.553        -13.191
  -2.551        -13.194
  -2.548        -13.198
  -2.546        -13.201
  -2.544        -13.205
  -2.542        -13.208
  -2.540        -13.212
  -2.538        -13.215
  -2.535        -13.219
  -2.533        -13.223
  -2.531        -13.226
  -2.529        -13.230
  -2.527        -13.234
  -2.525        -13.238
  -2.522        -13.242
  -2.520        -13.246
  -2.518        -13.250
  -2.516        -13.254
  -2.514        -13.258
  -2.511        -13.262
  -2.509        -13.266
  -2.507        -13.271
  -2.505        -13.275
  -2.503        -13.279
  -2.501        -13.284
  -2.498        -13.288
  -2.496        -13.293
  -2.494        -13.298
  -2.492        -13.302
  -2.490        -13.307
  -2.488        -13.312
  -2.485        -13.317
  -2.483        -13.321
  -2.481        -13.326
  -2.479        -13.331
  -2.477        -13.336
  -2.475        -13.341
  -2.472        -13.347
  -2.470        -13.352
  -2.468        -13.357
  -2.466        -13.363
  -2.464        -13.368
  -2.462        -13.373
  -2.459        -13.379
  -2.457        -13.384
  -2.455        -13.390
  -2.453        -13.396
  -2.451        -13.401
  -2.448        -13.407
  -2.446        -13.413
  -2.444        -13.419
  -2.442        -13.425
  -2.440        -13.431
  -2.438        -13.437
  -2.435        -13.443
  -2.433        -13.450
  -2.431        -13.456
  -2.429        -13.462
  -2.427        -13.469
  -2.425        -13.475
  -2.422        -13.482
  -2.420        -13.488
  -2.418        -13.495
  -2.416        -13.502
  -2.414        -13.509
  -2.412        -13.515
  -2.409        -13.522
  -2.407        -13.529
  -2.405        -13.536
  -2.403        -13.544
  -2.401        -13.551
  -2.398        -13.558
  -2.396        -13.565
  -2.394        -13.573
  -2.392        -13.580
  -2.390        -13.588
  -2.388        -13.596
  -2.386        -13.603
  -2.383        -13.611
  -2.381        -13.619
  -2.379        -13.627
  -2.377        -13.635
  -2.375        -13.643
  -2.372        -13.651
  -2.370        -13.659
  -2.368        -13.667
  -2.366        -13.676
  -2.364        -13.684
  -2.362        -13.693
  -2.359        -13.701
  -2.357        -13.710
  -2.355        -13.719
  -2.353        -13.727
  -2.351        -13.736
  -2.349        -13.745
  -2.346        -13.754
  -2.344        -13.763
  -2.342        -13.772
  -2.340        -13.782
  -2.338        -13.791
  -2.336        -13.801
  -2.333        -13.810
  -2.331        -13.820
  -2.329        -13.829
  -2.327        -13.839
  -2.325        -13.849
  -2.323        -13.859
  -2.320        -13.869
  -2.318        -13.879
  -2.316        -13.889
  -2.314        -13.899
  -2.312        -13.909
  -2.309        -13.920
  -2.307        -13.930
  -2.305        -13.941
  -2.303        -13.952
  -2.301        -13.962
  -2.299        -13.973
  -2.297        -13.984
  -2.294        -13.995
  -2.292        -14.006
  -2.290        -14.017
  -2.288        -14.028
  -2.286        -14.040
  -2.283        -14.051
  -2.281        -14.063
  -2.279        -14.074
  -2.277        -14.086
  -2.275        -14.098
  -2.273        -14.110
  -2.270        -14.122
  -2.268        -14.134
  -2.266        -14.146
  -2.264        -14.158
  -2.262        -14.171
  -2.260        -14.183
  -2.257        -14.195
  -2.255        -14.208
  -2.253        -14.221
  -2.251        -14.234
  -2.249        -14.247
  -2.247        -14.260
  -2.244        -14.273
  -2.242        -14.286
  -2.240        -14.299
  -2.238        -14.313
  -2.236        -14.326
  -2.234        -14.340
  -2.231        -14.354
  -2.229        -14.368
  -2.227        -14.382
  -2.225        -14.396
  -2.223        -14.410
  -2.220        -14.424
  -2.218        -14.438
  -2.216        -14.453
  -2.214        -14.467
  -2.212        -14.482
  -2.210        -14.497
  -2.207        -14.512
  -2.205        -14.526
  -2.203        -14.541
  -2.201        -14.557
  -2.199        -14.572
  -2.197        -14.587
  -2.194        -14.603
  -2.192        -14.619
  -2.190        -14.634
  -2.188        -14.650
  -2.186        -14.666
  -2.184        -14.682
  -2.181        -14.698
  -2.179        -14.715
  -2.177        -14.731
  -2.175        -14.748
  -2.173        -14.764
  -2.171        -14.781
  -2.168        -14.798
  -2.166        -14.815
  -2.164        -14.832
  -2.162        -14.849
  -2.160        -14.867
  -2.158        -14.884
  -2.155        -14.902
  -2.153        -14.919
  -2.151        -14.937
  -2.149        -14.955
  -2.147        -14.973
  -2.145        -14.991
  -2.142        -15.010
  -2.140        -15.028
  -2.138        -15.047
  -2.136        -15.066
  -2.134        -15.084
  -2.131        -15.103
  -2.129        -15.122
  -2.127        -15.141
  -2.125        -15.161
  -2.123        -15.180
  -2.121        -15.200
  -2.118        -15.220
  -2.116        -15.240
  -2.114        -15.260
  -2.112        -15.280
  -2.110        -15.300
  -2.108        -15.320
  -2.105        -15.341
  -2.103        -15.361
  -2.101        -15.382
  -2.099        -15.403
  -2.097        -15.424
  -2.095        -15.445
  -2.092        -15.467
  -2.090        -15.488
  -2.088        -15.510
  -2.086        -15.532
  -2.084        -15.553
  -2.082        -15.576
  -2.079        -15.598
  -2.077        -15.620
  -2.075        -15.643
  -2.073        -15.665
  -2.071        -15.688
  -2.069        -15.711
  -2.066        -15.734
  -2.064        -15.757
  -2.062        -15.780
  -2.060        -15.804
  -2.058        -15.827
  -2.056        -15.851
  -2.053        -15.875
  -2.051        -15.899
  -2.049        -15.924
  -2.047        -15.948
  -2.045        -15.972
  -2.043        -15.997
  -2.040        -16.022
  -2.038        -16.047
  -2.036        -16.072
  -2.034        -16.098
  -2.032        -16.123
  -2.029        -16.149
  -2.027        -16.174
  -2.025        -16.200
  -2.023        -16.226
  -2.021        -16.253
  -2.019        -16.279
  -2.016        -16.306
  -2.014        -16.332
  -2.012        -16.359
  -2.010        -16.386
  -2.008        -16.413
  -2.006        -16.441
  -2.003        -16.469
  -2.001        -16.496
  -1.999        -16.524
  -1.997        -16.552
  -1.995        -16.580
  -1.993        -16.608
  -1.990        -16.637
  -1.988        -16.665
  -1.986        -16.694
  -1.984        -16.723
  -1.982        -16.752
  -1.980        -16.781
  -1.977        -16.811
  -1.975        -16.840
  -1.973        -16.870
  -1.971        -16.900
  -1.969        -16.930
  -1.967        -16.960
  -1.964        -16.991
  -1.962        -17.021
  -1.960        -17.052
  -1.958        -17.082
  -1.956        -17.113
  -1.953        -17.144
  -1.951        -17.175
  -1.949        -17.207
