# log Energy    log Jnu
# (eV)          (ergs/s/cm2/Hz/Sr)
  -6.864        -20.278
  -6.820        -20.191
  -6.777        -20.104
  -6.734        -20.017
  -6.690        -19.931
  -6.647        -19.844
  -6.603        -19.757
  -6.560        -19.670
  -6.516        -19.583
  -6.473        -19.496
  -6.430        -19.409
  -6.386        -19.323
  -6.343        -19.236
  -6.299        -19.149
  -6.256        -19.062
  -6.212        -18.975
  -6.169        -18.888
  -6.126        -18.801
  -6.082        -18.715
  -6.039        -18.628
  -5.995        -18.541
  -5.952        -18.454
  -5.908        -18.367
  -5.865        -18.281
  -5.822        -18.194
  -5.778        -18.107
  -5.735        -18.020
  -5.691        -17.933
  -5.648        -17.846
  -5.605        -17.760
  -5.561        -17.673
  -5.518        -17.586
  -5.474        -17.499
  -5.431        -17.412
  -5.387        -17.326
  -5.344        -17.239
  -5.300        -17.152
  -5.257        -17.065
  -5.214        -16.979
  -5.170        -16.892
  -5.127        -16.805
  -5.083        -16.718
  -5.040        -16.632
  -4.996        -16.545
  -4.953        -16.458
  -4.910        -16.372
  -4.866        -16.285
  -4.823        -16.199
  -4.779        -16.112
  -4.736        -16.025
  -4.692        -15.939
  -4.649        -15.853
  -4.606        -15.766
  -4.562        -15.680
  -4.519        -15.594
  -4.475        -15.507
  -4.432        -15.421
  -4.388        -15.335
  -4.345        -15.249
  -4.302        -15.163
  -4.258        -15.077
  -4.215        -14.991
  -4.171        -14.906
  -4.128        -14.820
  -4.084        -14.735
  -4.041        -14.650
  -3.998        -14.565
  -3.954        -14.480
  -3.911        -14.396
  -3.867        -14.311
  -3.824        -14.227
  -3.781        -14.144
  -3.737        -14.060
  -3.693        -13.977
  -3.650        -13.895
  -3.607        -13.813
  -3.584        -13.774
  -3.582        -13.764
  -3.580        -13.762
  -3.577        -13.759
  -3.575        -13.755
  -3.573        -13.751
  -3.571        -13.747
  -3.569        -13.743
  -3.567        -13.739
  -3.564        -13.735
  -3.562        -13.731
  -3.560        -13.726
  -3.558        -13.722
  -3.556        -13.718
  -3.554        -13.714
  -3.551        -13.710
  -3.549        -13.706
  -3.547        -13.702
  -3.545        -13.698
  -3.543        -13.694
  -3.540        -13.690
  -3.538        -13.686
  -3.536        -13.682
  -3.534        -13.678
  -3.532        -13.674
  -3.530        -13.670
  -3.528        -13.666
  -3.525        -13.662
  -3.523        -13.658
  -3.521        -13.654
  -3.519        -13.649
  -3.517        -13.645
  -3.514        -13.641
  -3.512        -13.637
  -3.510        -13.633
  -3.508        -13.629
  -3.506        -13.625
  -3.504        -13.621
  -3.502        -13.617
  -3.499        -13.613
  -3.497        -13.609
  -3.495        -13.605
  -3.493        -13.601
  -3.491        -13.597
  -3.488        -13.593
  -3.486        -13.589
  -3.484        -13.585
  -3.482        -13.581
  -3.480        -13.577
  -3.477        -13.573
  -3.475        -13.569
  -3.473        -13.565
  -3.471        -13.561
  -3.469        -13.557
  -3.467        -13.553
  -3.464        -13.549
  -3.462        -13.545
  -3.460        -13.541
  -3.458        -13.537
  -3.456        -13.533
  -3.454        -13.529
  -3.451        -13.525
  -3.449        -13.521
  -3.447        -13.517
  -3.445        -13.513
  -3.443        -13.509
  -3.441        -13.505
  -3.438        -13.501
  -3.436        -13.497
  -3.434        -13.493
  -3.432        -13.489
  -3.430        -13.485
  -3.428        -13.482
  -3.425        -13.478
  -3.423        -13.474
  -3.421        -13.470
  -3.419        -13.466
  -3.417        -13.462
  -3.415        -13.458
  -3.412        -13.454
  -3.410        -13.450
  -3.408        -13.446
  -3.406        -13.442
  -3.404        -13.438
  -3.402        -13.434
  -3.399        -13.430
  -3.397        -13.426
  -3.395        -13.422
  -3.393        -13.418
  -3.391        -13.415
  -3.389        -13.411
  -3.386        -13.407
  -3.384        -13.403
  -3.382        -13.399
  -3.380        -13.395
  -3.378        -13.391
  -3.376        -13.387
  -3.373        -13.383
  -3.371        -13.379
  -3.369        -13.375
  -3.367        -13.371
  -3.365        -13.368
  -3.362        -13.364
  -3.360        -13.360
  -3.358        -13.356
  -3.356        -13.352
  -3.354        -13.348
  -3.352        -13.344
  -3.349        -13.340
  -3.347        -13.336
  -3.345        -13.333
  -3.343        -13.329
  -3.341        -13.325
  -3.339        -13.321
  -3.336        -13.317
  -3.334        -13.313
  -3.332        -13.309
  -3.330        -13.306
  -3.328        -13.302
  -3.326        -13.298
  -3.323        -13.294
  -3.321        -13.290
  -3.319        -13.286
  -3.317        -13.282
  -3.315        -13.279
  -3.313        -13.275
  -3.310        -13.271
  -3.308        -13.267
  -3.306        -13.263
  -3.304        -13.259
  -3.302        -13.256
  -3.300        -13.252
  -3.297        -13.248
  -3.295        -13.244
  -3.293        -13.240
  -3.291        -13.236
  -3.289        -13.233
  -3.287        -13.229
  -3.284        -13.225
  -3.282        -13.221
  -3.280        -13.217
  -3.278        -13.214
  -3.276        -13.210
  -3.273        -13.206
  -3.271        -13.202
  -3.269        -13.199
  -3.267        -13.195
  -3.265        -13.191
  -3.263        -13.187
  -3.260        -13.184
  -3.258        -13.180
  -3.256        -13.176
  -3.254        -13.172
  -3.252        -13.168
  -3.250        -13.165
  -3.247        -13.161
  -3.245        -13.157
  -3.243        -13.154
  -3.241        -13.150
  -3.239        -13.146
  -3.237        -13.142
  -3.234        -13.138
  -3.232        -13.135
  -3.230        -13.131
  -3.228        -13.127
  -3.226        -13.123
  -3.224        -13.120
  -3.221        -13.116
  -3.219        -13.112
  -3.217        -13.109
  -3.215        -13.105
  -3.213        -13.101
  -3.211        -13.097
  -3.208        -13.094
  -3.206        -13.090
  -3.204        -13.087
  -3.202        -13.083
  -3.200        -13.079
  -3.197        -13.076
  -3.195        -13.072
  -3.193        -13.068
  -3.191        -13.065
  -3.189        -13.061
  -3.187        -13.057
  -3.184        -13.054
  -3.182        -13.050
  -3.180        -13.046
  -3.178        -13.043
  -3.176        -13.039
  -3.174        -13.035
  -3.171        -13.032
  -3.169        -13.028
  -3.167        -13.024
  -3.165        -13.021
  -3.163        -13.017
  -3.161        -13.014
  -3.158        -13.010
  -3.156        -13.006
  -3.154        -13.003
  -3.152        -12.999
  -3.150        -12.996
  -3.148        -12.992
  -3.145        -12.989
  -3.143        -12.985
  -3.141        -12.981
  -3.139        -12.978
  -3.137        -12.974
  -3.135        -12.971
  -3.132        -12.967
  -3.130        -12.964
  -3.128        -12.960
  -3.126        -12.957
  -3.124        -12.953
  -3.122        -12.950
  -3.119        -12.946
  -3.117        -12.942
  -3.115        -12.939
  -3.113        -12.935
  -3.111        -12.932
  -3.108        -12.928
  -3.106        -12.925
  -3.104        -12.921
  -3.102        -12.918
  -3.100        -12.914
  -3.098        -12.911
  -3.095        -12.908
  -3.093        -12.904
  -3.091        -12.901
  -3.089        -12.897
  -3.087        -12.894
  -3.085        -12.890
  -3.082        -12.887
  -3.080        -12.883
  -3.078        -12.880
  -3.076        -12.876
  -3.074        -12.873
  -3.072        -12.870
  -3.069        -12.866
  -3.067        -12.863
  -3.065        -12.859
  -3.063        -12.856
  -3.061        -12.852
  -3.059        -12.849
  -3.056        -12.846
  -3.054        -12.842
  -3.052        -12.839
  -3.050        -12.836
  -3.048        -12.832
  -3.046        -12.829
  -3.043        -12.826
  -3.041        -12.822
  -3.039        -12.819
  -3.037        -12.816
  -3.035        -12.812
  -3.032        -12.809
  -3.030        -12.806
  -3.028        -12.802
  -3.026        -12.799
  -3.024        -12.796
  -3.022        -12.792
  -3.019        -12.789
  -3.017        -12.786
  -3.015        -12.782
  -3.013        -12.779
  -3.011        -12.776
  -3.009        -12.773
  -3.006        -12.769
  -3.004        -12.766
  -3.002        -12.763
  -3.000        -12.760
  -2.998        -12.756
  -2.996        -12.753
  -2.993        -12.750
  -2.991        -12.747
  -2.989        -12.744
  -2.987        -12.740
  -2.985        -12.737
  -2.983        -12.734
  -2.980        -12.731
  -2.978        -12.728
  -2.976        -12.725
  -2.974        -12.721
  -2.972        -12.718
  -2.970        -12.715
  -2.967        -12.712
  -2.965        -12.709
  -2.963        -12.706
  -2.961        -12.703
  -2.959        -12.699
  -2.956        -12.696
  -2.954        -12.693
  -2.952        -12.690
  -2.950        -12.687
  -2.948        -12.684
  -2.946        -12.681
  -2.944        -12.678
  -2.941        -12.675
  -2.939        -12.672
  -2.937        -12.669
  -2.935        -12.666
  -2.933        -12.663
  -2.930        -12.660
  -2.928        -12.657
  -2.926        -12.654
  -2.924        -12.651
  -2.922        -12.648
  -2.920        -12.645
  -2.917        -12.642
  -2.915        -12.639
  -2.913        -12.636
  -2.911        -12.633
  -2.909        -12.630
  -2.907        -12.627
  -2.904        -12.624
  -2.902        -12.621
  -2.900        -12.618
  -2.898        -12.615
  -2.896        -12.612
  -2.894        -12.610
  -2.891        -12.607
  -2.889        -12.604
  -2.887        -12.601
  -2.885        -12.598
  -2.883        -12.595
  -2.880        -12.593
  -2.878        -12.590
  -2.876        -12.587
  -2.874        -12.584
  -2.872        -12.581
  -2.870        -12.578
  -2.867        -12.576
  -2.865        -12.573
  -2.863        -12.570
  -2.861        -12.567
  -2.859        -12.565
  -2.857        -12.562
  -2.855        -12.559
  -2.852        -12.557
  -2.850        -12.554
  -2.848        -12.551
  -2.846        -12.548
  -2.843        -12.546
  -2.842        -12.543
  -2.839        -12.541
  -2.837        -12.538
  -2.835        -12.535
  -2.833        -12.533
  -2.831        -12.530
  -2.828        -12.527
  -2.826        -12.525
  -2.824        -12.522
  -2.822        -12.520
  -2.820        -12.517
  -2.817        -12.514
  -2.815        -12.512
  -2.813        -12.510
  -2.811        -12.507
  -2.809        -12.504
  -2.807        -12.502
  -2.805        -12.499
  -2.802        -12.497
  -2.800        -12.495
  -2.798        -12.492
  -2.796        -12.490
  -2.794        -12.487
  -2.792        -12.485
  -2.789        -12.482
  -2.787        -12.480
  -2.785        -12.478
  -2.783        -12.475
  -2.781        -12.473
  -2.779        -12.470
  -2.776        -12.468
  -2.774        -12.466
  -2.772        -12.463
  -2.770        -12.461
  -2.767        -12.459
  -2.765        -12.457
  -2.763        -12.454
  -2.761        -12.452
  -2.759        -12.450
  -2.757        -12.448
  -2.754        -12.446
  -2.753        -12.443
  -2.750        -12.441
  -2.748        -12.439
  -2.746        -12.437
  -2.744        -12.435
  -2.741        -12.432
  -2.739        -12.430
  -2.737        -12.428
  -2.735        -12.426
  -2.733        -12.424
  -2.731        -12.422
  -2.729        -12.420
  -2.726        -12.418
  -2.724        -12.416
  -2.722        -12.414
  -2.720        -12.412
  -2.718        -12.410
  -2.716        -12.408
  -2.713        -12.406
  -2.711        -12.404
  -2.709        -12.402
  -2.707        -12.400
  -2.705        -12.398
  -2.703        -12.396
  -2.700        -12.394
  -2.698        -12.392
  -2.696        -12.390
  -2.694        -12.389
  -2.692        -12.387
  -2.689        -12.385
  -2.687        -12.383
  -2.685        -12.381
  -2.683        -12.380
  -2.681        -12.378
  -2.679        -12.376
  -2.677        -12.374
  -2.674        -12.373
  -2.672        -12.371
  -2.670        -12.370
  -2.668        -12.368
  -2.666        -12.366
  -2.663        -12.365
  -2.661        -12.363
  -2.659        -12.361
  -2.657        -12.360
  -2.655        -12.358
  -2.653        -12.357
  -2.650        -12.355
  -2.648        -12.354
  -2.646        -12.353
  -2.644        -12.351
  -2.642        -12.349
  -2.640        -12.348
  -2.637        -12.347
  -2.635        -12.345
  -2.633        -12.344
  -2.631        -12.343
  -2.629        -12.341
  -2.626        -12.340
  -2.624        -12.339
  -2.622        -12.337
  -2.620        -12.336
  -2.618        -12.335
  -2.616        -12.334
  -2.614        -12.332
  -2.611        -12.331
  -2.609        -12.330
  -2.607        -12.329
  -2.605        -12.328
  -2.603        -12.327
  -2.600        -12.326
  -2.598        -12.325
  -2.596        -12.324
  -2.594        -12.322
  -2.592        -12.321
  -2.590        -12.320
  -2.587        -12.319
  -2.585        -12.319
  -2.583        -12.318
  -2.581        -12.317
  -2.579        -12.316
  -2.577        -12.315
  -2.574        -12.314
  -2.572        -12.313
  -2.570        -12.312
  -2.568        -12.312
  -2.566        -12.311
  -2.564        -12.310
  -2.561        -12.310
  -2.559        -12.309
  -2.557        -12.308
  -2.555        -12.308
  -2.553        -12.307
  -2.551        -12.306
  -2.548        -12.306
  -2.546        -12.305
  -2.544        -12.305
  -2.542        -12.304
  -2.540        -12.304
  -2.538        -12.303
  -2.535        -12.303
  -2.533        -12.302
  -2.531        -12.302
  -2.529        -12.302
  -2.527        -12.301
  -2.525        -12.301
  -2.522        -12.301
  -2.520        -12.300
  -2.518        -12.300
  -2.516        -12.300
  -2.514        -12.300
  -2.511        -12.300
  -2.509        -12.300
  -2.507        -12.299
  -2.505        -12.299
  -2.503        -12.299
  -2.501        -12.299
  -2.498        -12.299
  -2.496        -12.299
  -2.494        -12.299
  -2.492        -12.299
  -2.490        -12.300
  -2.488        -12.300
  -2.485        -12.300
  -2.483        -12.300
  -2.481        -12.300
  -2.479        -12.301
  -2.477        -12.301
  -2.475        -12.301
  -2.472        -12.301
  -2.470        -12.302
  -2.468        -12.302
  -2.466        -12.303
  -2.464        -12.303
  -2.462        -12.304
  -2.459        -12.304
  -2.457        -12.305
  -2.455        -12.305
  -2.453        -12.306
  -2.451        -12.306
  -2.448        -12.307
  -2.446        -12.308
  -2.444        -12.308
  -2.442        -12.309
  -2.440        -12.310
  -2.438        -12.311
  -2.435        -12.312
  -2.433        -12.313
  -2.431        -12.314
  -2.429        -12.315
  -2.427        -12.315
  -2.425        -12.317
  -2.422        -12.318
  -2.420        -12.319
  -2.418        -12.320
  -2.416        -12.321
  -2.414        -12.322
  -2.412        -12.323
  -2.409        -12.325
  -2.407        -12.326
  -2.405        -12.327
  -2.403        -12.328
  -2.401        -12.330
  -2.398        -12.331
  -2.396        -12.333
  -2.394        -12.334
  -2.392        -12.336
  -2.390        -12.337
  -2.388        -12.339
  -2.386        -12.341
  -2.383        -12.342
  -2.381        -12.344
  -2.379        -12.346
  -2.377        -12.348
  -2.375        -12.349
  -2.372        -12.351
  -2.370        -12.353
  -2.368        -12.355
  -2.366        -12.357
  -2.364        -12.359
  -2.362        -12.361
  -2.359        -12.363
  -2.357        -12.366
  -2.355        -12.368
  -2.353        -12.370
  -2.351        -12.372
  -2.349        -12.374
  -2.346        -12.377
  -2.344        -12.379
  -2.342        -12.382
  -2.340        -12.384
  -2.338        -12.386
  -2.336        -12.389
  -2.333        -12.392
  -2.331        -12.394
  -2.329        -12.397
  -2.327        -12.400
  -2.325        -12.402
  -2.323        -12.405
  -2.320        -12.408
  -2.318        -12.411
  -2.316        -12.414
  -2.314        -12.417
  -2.312        -12.420
  -2.309        -12.423
  -2.307        -12.426
  -2.305        -12.429
  -2.303        -12.433
  -2.301        -12.436
  -2.299        -12.439
  -2.297        -12.442
  -2.294        -12.446
  -2.292        -12.449
  -2.290        -12.453
  -2.288        -12.456
  -2.286        -12.460
  -2.283        -12.464
  -2.281        -12.467
  -2.279        -12.471
  -2.277        -12.475
  -2.275        -12.479
  -2.273        -12.482
  -2.270        -12.486
  -2.268        -12.490
  -2.266        -12.494
  -2.264        -12.498
  -2.262        -12.503
  -2.260        -12.507
  -2.257        -12.511
  -2.255        -12.515
  -2.253        -12.520
  -2.251        -12.524
  -2.249        -12.529
  -2.247        -12.533
  -2.244        -12.538
  -2.242        -12.542
  -2.240        -12.547
  -2.238        -12.552
  -2.236        -12.556
  -2.234        -12.561
  -2.231        -12.566
  -2.229        -12.571
  -2.227        -12.576
  -2.225        -12.581
  -2.223        -12.586
  -2.220        -12.591
  -2.218        -12.597
  -2.216        -12.602
  -2.214        -12.607
  -2.212        -12.613
  -2.210        -12.618
  -2.207        -12.623
  -2.205        -12.629
  -2.203        -12.635
  -2.201        -12.640
  -2.199        -12.646
  -2.197        -12.652
  -2.194        -12.658
  -2.192        -12.664
  -2.190        -12.670
  -2.188        -12.676
  -2.186        -12.682
  -2.184        -12.688
  -2.181        -12.694
  -2.179        -12.701
  -2.177        -12.707
  -2.175        -12.713
  -2.173        -12.720
  -2.171        -12.726
  -2.168        -12.733
  -2.166        -12.740
  -2.164        -12.746
  -2.162        -12.753
  -2.160        -12.760
  -2.158        -12.767
  -2.155        -12.774
  -2.153        -12.781
  -2.151        -12.788
  -2.149        -12.795
  -2.147        -12.803
  -2.145        -12.810
  -2.142        -12.818
  -2.140        -12.825
  -2.138        -12.833
  -2.136        -12.840
  -2.134        -12.848
  -2.131        -12.856
  -2.129        -12.864
  -2.127        -12.872
  -2.125        -12.879
  -2.123        -12.887
  -2.121        -12.896
  -2.118        -12.904
  -2.116        -12.912
  -2.114        -12.920
  -2.112        -12.929
  -2.110        -12.937
  -2.108        -12.946
  -2.105        -12.954
  -2.103        -12.963
  -2.101        -12.972
  -2.099        -12.981
  -2.097        -12.990
  -2.095        -12.999
  -2.092        -13.008
  -2.090        -13.017
  -2.088        -13.026
  -2.086        -13.036
  -2.084        -13.045
  -2.082        -13.055
  -2.079        -13.064
  -2.077        -13.074
  -2.075        -13.084
  -2.073        -13.093
  -2.071        -13.103
  -2.069        -13.113
  -2.066        -13.123
  -2.064        -13.134
  -2.062        -13.144
  -2.060        -13.154
  -2.058        -13.164
  -2.056        -13.175
  -2.053        -13.186
  -2.051        -13.196
  -2.049        -13.207
  -2.047        -13.218
  -2.045        -13.229
  -2.043        -13.240
  -2.040        -13.251
  -2.038        -13.262
  -2.036        -13.273
  -2.034        -13.284
  -2.032        -13.296
  -2.029        -13.307
  -2.027        -13.319
  -2.025        -13.331
  -2.023        -13.343
  -2.021        -13.355
  -2.019        -13.366
  -2.016        -13.378
  -2.014        -13.391
  -2.012        -13.403
  -2.010        -13.415
  -2.008        -13.428
  -2.006        -13.440
  -2.003        -13.453
  -2.001        -13.466
  -1.999        -13.478
  -1.997        -13.492
  -1.995        -13.505
  -1.993        -13.518
  -1.990        -13.531
  -1.988        -13.544
  -1.986        -13.558
  -1.984        -13.571
  -1.982        -13.585
  -1.980        -13.599
  -1.977        -13.612
  -1.975        -13.626
  -1.973        -13.640
  -1.971        -13.654
  -1.969        -13.669
  -1.967        -13.683
  -1.964        -13.697
  -1.962        -13.712
  -1.960        -13.727
  -1.958        -13.741
  -1.956        -13.756
  -1.953        -13.771
  -1.951        -13.786
  -1.949        -13.802
