# log Energy    log Jnu
# (eV)          (ergs/s/cm2/Hz/Sr)
  -6.864        -20.213
  -6.820        -20.127
  -6.777        -20.040
  -6.734        -19.953
  -6.690        -19.866
  -6.647        -19.779
  -6.603        -19.692
  -6.560        -19.606
  -6.516        -19.519
  -6.473        -19.432
  -6.430        -19.345
  -6.386        -19.258
  -6.343        -19.171
  -6.299        -19.084
  -6.256        -18.998
  -6.212        -18.911
  -6.169        -18.824
  -6.126        -18.737
  -6.082        -18.650
  -6.039        -18.563
  -5.995        -18.477
  -5.952        -18.390
  -5.908        -18.303
  -5.865        -18.216
  -5.822        -18.129
  -5.778        -18.042
  -5.735        -17.956
  -5.691        -17.869
  -5.648        -17.782
  -5.605        -17.695
  -5.561        -17.608
  -5.518        -17.522
  -5.474        -17.435
  -5.431        -17.348
  -5.387        -17.261
  -5.344        -17.174
  -5.300        -17.087
  -5.257        -17.001
  -5.214        -16.914
  -5.170        -16.827
  -5.127        -16.740
  -5.083        -16.654
  -5.040        -16.567
  -4.996        -16.480
  -4.953        -16.394
  -4.910        -16.307
  -4.866        -16.220
  -4.823        -16.134
  -4.779        -16.047
  -4.736        -15.960
  -4.692        -15.874
  -4.649        -15.788
  -4.606        -15.701
  -4.562        -15.615
  -4.519        -15.528
  -4.475        -15.442
  -4.432        -15.356
  -4.388        -15.270
  -4.345        -15.183
  -4.302        -15.097
  -4.258        -15.011
  -4.215        -14.925
  -4.171        -14.840
  -4.128        -14.754
  -4.084        -14.668
  -4.041        -14.583
  -3.998        -14.498
  -3.954        -14.413
  -3.911        -14.328
  -3.867        -14.243
  -3.824        -14.159
  -3.781        -14.075
  -3.737        -13.991
  -3.693        -13.907
  -3.650        -13.824
  -3.607        -13.742
  -3.584        -13.703
  -3.582        -13.692
  -3.580        -13.691
  -3.577        -13.687
  -3.575        -13.683
  -3.573        -13.679
  -3.571        -13.675
  -3.569        -13.671
  -3.567        -13.667
  -3.564        -13.662
  -3.562        -13.659
  -3.560        -13.654
  -3.558        -13.650
  -3.556        -13.646
  -3.554        -13.642
  -3.551        -13.638
  -3.549        -13.634
  -3.547        -13.630
  -3.545        -13.626
  -3.543        -13.622
  -3.540        -13.617
  -3.538        -13.613
  -3.536        -13.609
  -3.534        -13.605
  -3.532        -13.601
  -3.530        -13.597
  -3.528        -13.593
  -3.525        -13.589
  -3.523        -13.585
  -3.521        -13.581
  -3.519        -13.577
  -3.517        -13.573
  -3.514        -13.569
  -3.512        -13.564
  -3.510        -13.560
  -3.508        -13.556
  -3.506        -13.552
  -3.504        -13.548
  -3.502        -13.544
  -3.499        -13.540
  -3.497        -13.536
  -3.495        -13.532
  -3.493        -13.528
  -3.491        -13.524
  -3.488        -13.520
  -3.486        -13.516
  -3.484        -13.511
  -3.482        -13.507
  -3.480        -13.503
  -3.477        -13.499
  -3.475        -13.495
  -3.473        -13.491
  -3.471        -13.487
  -3.469        -13.483
  -3.467        -13.479
  -3.464        -13.475
  -3.462        -13.471
  -3.460        -13.467
  -3.458        -13.463
  -3.456        -13.459
  -3.454        -13.455
  -3.451        -13.451
  -3.449        -13.447
  -3.447        -13.443
  -3.445        -13.439
  -3.443        -13.435
  -3.441        -13.431
  -3.438        -13.427
  -3.436        -13.423
  -3.434        -13.419
  -3.432        -13.415
  -3.430        -13.411
  -3.428        -13.407
  -3.425        -13.403
  -3.423        -13.399
  -3.421        -13.395
  -3.419        -13.391
  -3.417        -13.386
  -3.415        -13.382
  -3.412        -13.379
  -3.410        -13.374
  -3.408        -13.371
  -3.406        -13.366
  -3.404        -13.362
  -3.402        -13.358
  -3.399        -13.355
  -3.397        -13.351
  -3.395        -13.346
  -3.393        -13.343
  -3.391        -13.339
  -3.389        -13.335
  -3.386        -13.331
  -3.384        -13.327
  -3.382        -13.323
  -3.380        -13.319
  -3.378        -13.315
  -3.376        -13.311
  -3.373        -13.307
  -3.371        -13.303
  -3.369        -13.299
  -3.367        -13.295
  -3.365        -13.291
  -3.362        -13.287
  -3.360        -13.283
  -3.358        -13.279
  -3.356        -13.275
  -3.354        -13.271
  -3.352        -13.267
  -3.349        -13.263
  -3.347        -13.259
  -3.345        -13.255
  -3.343        -13.251
  -3.341        -13.247
  -3.339        -13.243
  -3.336        -13.240
  -3.334        -13.236
  -3.332        -13.232
  -3.330        -13.228
  -3.328        -13.224
  -3.326        -13.220
  -3.323        -13.216
  -3.321        -13.212
  -3.319        -13.208
  -3.317        -13.204
  -3.315        -13.200
  -3.313        -13.196
  -3.310        -13.192
  -3.308        -13.189
  -3.306        -13.185
  -3.304        -13.181
  -3.302        -13.177
  -3.300        -13.173
  -3.297        -13.169
  -3.295        -13.165
  -3.293        -13.162
  -3.291        -13.158
  -3.289        -13.153
  -3.287        -13.150
  -3.284        -13.146
  -3.282        -13.142
  -3.280        -13.138
  -3.278        -13.134
  -3.276        -13.130
  -3.273        -13.126
  -3.271        -13.123
  -3.269        -13.119
  -3.267        -13.115
  -3.265        -13.111
  -3.263        -13.107
  -3.260        -13.103
  -3.258        -13.099
  -3.256        -13.096
  -3.254        -13.092
  -3.252        -13.088
  -3.250        -13.084
  -3.247        -13.080
  -3.245        -13.076
  -3.243        -13.073
  -3.241        -13.069
  -3.239        -13.065
  -3.237        -13.061
  -3.234        -13.057
  -3.232        -13.053
  -3.230        -13.050
  -3.228        -13.046
  -3.226        -13.042
  -3.224        -13.038
  -3.221        -13.034
  -3.219        -13.031
  -3.217        -13.027
  -3.215        -13.023
  -3.213        -13.019
  -3.211        -13.015
  -3.208        -13.012
  -3.206        -13.008
  -3.204        -13.004
  -3.202        -13.000
  -3.200        -12.997
  -3.197        -12.993
  -3.195        -12.989
  -3.193        -12.985
  -3.191        -12.981
  -3.189        -12.978
  -3.187        -12.974
  -3.184        -12.970
  -3.182        -12.966
  -3.180        -12.963
  -3.178        -12.959
  -3.176        -12.955
  -3.174        -12.951
  -3.171        -12.948
  -3.169        -12.944
  -3.167        -12.940
  -3.165        -12.936
  -3.163        -12.933
  -3.161        -12.929
  -3.158        -12.925
  -3.156        -12.922
  -3.154        -12.918
  -3.152        -12.914
  -3.150        -12.910
  -3.148        -12.907
  -3.145        -12.903
  -3.143        -12.899
  -3.141        -12.896
  -3.139        -12.892
  -3.137        -12.888
  -3.135        -12.885
  -3.132        -12.881
  -3.130        -12.877
  -3.128        -12.874
  -3.126        -12.870
  -3.124        -12.866
  -3.122        -12.863
  -3.119        -12.859
  -3.117        -12.855
  -3.115        -12.852
  -3.113        -12.848
  -3.111        -12.844
  -3.108        -12.841
  -3.106        -12.837
  -3.104        -12.834
  -3.102        -12.830
  -3.100        -12.826
  -3.098        -12.823
  -3.095        -12.819
  -3.093        -12.816
  -3.091        -12.812
  -3.089        -12.808
  -3.087        -12.805
  -3.085        -12.801
  -3.082        -12.798
  -3.080        -12.794
  -3.078        -12.790
  -3.076        -12.787
  -3.074        -12.783
  -3.072        -12.780
  -3.069        -12.776
  -3.067        -12.773
  -3.065        -12.769
  -3.063        -12.766
  -3.061        -12.762
  -3.059        -12.759
  -3.056        -12.755
  -3.054        -12.752
  -3.052        -12.748
  -3.050        -12.744
  -3.048        -12.741
  -3.046        -12.737
  -3.043        -12.734
  -3.041        -12.730
  -3.039        -12.727
  -3.037        -12.723
  -3.035        -12.720
  -3.032        -12.717
  -3.030        -12.713
  -3.028        -12.710
  -3.026        -12.706
  -3.024        -12.703
  -3.022        -12.699
  -3.019        -12.696
  -3.017        -12.692
  -3.015        -12.689
  -3.013        -12.685
  -3.011        -12.682
  -3.009        -12.679
  -3.006        -12.675
  -3.004        -12.672
  -3.002        -12.668
  -3.000        -12.665
  -2.998        -12.661
  -2.996        -12.658
  -2.993        -12.655
  -2.991        -12.651
  -2.989        -12.648
  -2.987        -12.645
  -2.985        -12.641
  -2.983        -12.638
  -2.980        -12.634
  -2.978        -12.631
  -2.976        -12.628
  -2.974        -12.624
  -2.972        -12.621
  -2.970        -12.618
  -2.967        -12.614
  -2.965        -12.611
  -2.963        -12.608
  -2.961        -12.605
  -2.959        -12.601
  -2.956        -12.598
  -2.954        -12.595
  -2.952        -12.591
  -2.950        -12.588
  -2.948        -12.585
  -2.946        -12.582
  -2.944        -12.578
  -2.941        -12.575
  -2.939        -12.572
  -2.937        -12.569
  -2.935        -12.565
  -2.933        -12.562
  -2.930        -12.559
  -2.928        -12.556
  -2.926        -12.552
  -2.924        -12.549
  -2.922        -12.546
  -2.920        -12.543
  -2.917        -12.540
  -2.915        -12.536
  -2.913        -12.533
  -2.911        -12.530
  -2.909        -12.527
  -2.907        -12.524
  -2.904        -12.521
  -2.902        -12.517
  -2.900        -12.514
  -2.898        -12.511
  -2.896        -12.508
  -2.894        -12.505
  -2.891        -12.502
  -2.889        -12.499
  -2.887        -12.496
  -2.885        -12.493
  -2.883        -12.490
  -2.880        -12.487
  -2.878        -12.483
  -2.876        -12.480
  -2.874        -12.477
  -2.872        -12.474
  -2.870        -12.471
  -2.867        -12.469
  -2.865        -12.465
  -2.863        -12.462
  -2.861        -12.459
  -2.859        -12.456
  -2.857        -12.453
  -2.855        -12.450
  -2.852        -12.447
  -2.850        -12.444
  -2.848        -12.442
  -2.846        -12.438
  -2.843        -12.436
  -2.842        -12.433
  -2.839        -12.430
  -2.837        -12.427
  -2.835        -12.424
  -2.833        -12.421
  -2.831        -12.418
  -2.828        -12.415
  -2.826        -12.413
  -2.824        -12.409
  -2.822        -12.407
  -2.820        -12.404
  -2.817        -12.401
  -2.815        -12.398
  -2.813        -12.396
  -2.811        -12.393
  -2.809        -12.390
  -2.807        -12.387
  -2.805        -12.384
  -2.802        -12.382
  -2.800        -12.379
  -2.798        -12.376
  -2.796        -12.373
  -2.794        -12.370
  -2.792        -12.368
  -2.789        -12.365
  -2.787        -12.362
  -2.785        -12.360
  -2.783        -12.357
  -2.781        -12.354
  -2.779        -12.352
  -2.776        -12.349
  -2.774        -12.346
  -2.772        -12.344
  -2.770        -12.341
  -2.767        -12.339
  -2.765        -12.336
  -2.763        -12.333
  -2.761        -12.331
  -2.759        -12.328
  -2.757        -12.326
  -2.754        -12.323
  -2.753        -12.320
  -2.750        -12.318
  -2.748        -12.315
  -2.746        -12.313
  -2.744        -12.310
  -2.741        -12.308
  -2.739        -12.305
  -2.737        -12.303
  -2.735        -12.300
  -2.733        -12.298
  -2.731        -12.295
  -2.729        -12.293
  -2.726        -12.290
  -2.724        -12.288
  -2.722        -12.286
  -2.720        -12.283
  -2.718        -12.281
  -2.716        -12.279
  -2.713        -12.276
  -2.711        -12.274
  -2.709        -12.272
  -2.707        -12.269
  -2.705        -12.267
  -2.703        -12.265
  -2.700        -12.263
  -2.698        -12.260
  -2.696        -12.258
  -2.694        -12.256
  -2.692        -12.254
  -2.689        -12.251
  -2.687        -12.249
  -2.685        -12.247
  -2.683        -12.245
  -2.681        -12.243
  -2.679        -12.240
  -2.677        -12.238
  -2.674        -12.236
  -2.672        -12.234
  -2.670        -12.232
  -2.668        -12.230
  -2.666        -12.228
  -2.663        -12.226
  -2.661        -12.224
  -2.659        -12.222
  -2.657        -12.220
  -2.655        -12.218
  -2.653        -12.216
  -2.650        -12.214
  -2.648        -12.212
  -2.646        -12.210
  -2.644        -12.208
  -2.642        -12.206
  -2.640        -12.204
  -2.637        -12.202
  -2.635        -12.200
  -2.633        -12.199
  -2.631        -12.197
  -2.629        -12.195
  -2.626        -12.193
  -2.624        -12.191
  -2.622        -12.189
  -2.620        -12.188
  -2.618        -12.186
  -2.616        -12.184
  -2.614        -12.182
  -2.611        -12.181
  -2.609        -12.179
  -2.607        -12.177
  -2.605        -12.176
  -2.603        -12.174
  -2.600        -12.172
  -2.598        -12.171
  -2.596        -12.169
  -2.594        -12.168
  -2.592        -12.166
  -2.590        -12.165
  -2.587        -12.163
  -2.585        -12.162
  -2.583        -12.160
  -2.581        -12.159
  -2.579        -12.157
  -2.577        -12.156
  -2.574        -12.154
  -2.572        -12.153
  -2.570        -12.151
  -2.568        -12.150
  -2.566        -12.149
  -2.564        -12.147
  -2.561        -12.146
  -2.559        -12.145
  -2.557        -12.144
  -2.555        -12.142
  -2.553        -12.141
  -2.551        -12.140
  -2.548        -12.139
  -2.546        -12.137
  -2.544        -12.136
  -2.542        -12.135
  -2.540        -12.134
  -2.538        -12.133
  -2.535        -12.132
  -2.533        -12.131
  -2.531        -12.130
  -2.529        -12.129
  -2.527        -12.128
  -2.525        -12.127
  -2.522        -12.126
  -2.520        -12.125
  -2.518        -12.124
  -2.516        -12.123
  -2.514        -12.122
  -2.511        -12.121
  -2.509        -12.120
  -2.507        -12.120
  -2.505        -12.119
  -2.503        -12.118
  -2.501        -12.117
  -2.498        -12.117
  -2.496        -12.116
  -2.494        -12.115
  -2.492        -12.115
  -2.490        -12.114
  -2.488        -12.113
  -2.485        -12.113
  -2.483        -12.112
  -2.481        -12.112
  -2.479        -12.111
  -2.477        -12.111
  -2.475        -12.110
  -2.472        -12.110
  -2.470        -12.109
  -2.468        -12.109
  -2.466        -12.109
  -2.464        -12.108
  -2.462        -12.108
  -2.459        -12.108
  -2.457        -12.107
  -2.455        -12.107
  -2.453        -12.107
  -2.451        -12.107
  -2.448        -12.107
  -2.446        -12.106
  -2.444        -12.106
  -2.442        -12.106
  -2.440        -12.106
  -2.438        -12.106
  -2.435        -12.106
  -2.433        -12.106
  -2.431        -12.106
  -2.429        -12.106
  -2.427        -12.106
  -2.425        -12.106
  -2.422        -12.106
  -2.420        -12.107
  -2.418        -12.107
  -2.416        -12.107
  -2.414        -12.107
  -2.412        -12.108
  -2.409        -12.108
  -2.407        -12.108
  -2.405        -12.109
  -2.403        -12.109
  -2.401        -12.109
  -2.398        -12.110
  -2.396        -12.110
  -2.394        -12.111
  -2.392        -12.111
  -2.390        -12.112
  -2.388        -12.113
  -2.386        -12.113
  -2.383        -12.114
  -2.381        -12.115
  -2.379        -12.115
  -2.377        -12.116
  -2.375        -12.117
  -2.372        -12.118
  -2.370        -12.119
  -2.368        -12.120
  -2.366        -12.121
  -2.364        -12.122
  -2.362        -12.122
  -2.359        -12.123
  -2.357        -12.125
  -2.355        -12.126
  -2.353        -12.127
  -2.351        -12.128
  -2.349        -12.129
  -2.346        -12.130
  -2.344        -12.132
  -2.342        -12.133
  -2.340        -12.134
  -2.338        -12.135
  -2.336        -12.137
  -2.333        -12.139
  -2.331        -12.140
  -2.329        -12.142
  -2.327        -12.143
  -2.325        -12.145
  -2.323        -12.146
  -2.320        -12.148
  -2.318        -12.150
  -2.316        -12.151
  -2.314        -12.153
  -2.312        -12.155
  -2.309        -12.157
  -2.307        -12.159
  -2.305        -12.160
  -2.303        -12.162
  -2.301        -12.164
  -2.299        -12.167
  -2.297        -12.168
  -2.294        -12.170
  -2.292        -12.173
  -2.290        -12.175
  -2.288        -12.177
  -2.286        -12.180
  -2.283        -12.182
  -2.281        -12.184
  -2.279        -12.186
  -2.277        -12.189
  -2.275        -12.191
  -2.273        -12.194
  -2.270        -12.196
  -2.268        -12.199
  -2.266        -12.202
  -2.264        -12.205
  -2.262        -12.207
  -2.260        -12.210
  -2.257        -12.213
  -2.255        -12.216
  -2.253        -12.218
  -2.251        -12.221
  -2.249        -12.224
  -2.247        -12.227
  -2.244        -12.231
  -2.242        -12.234
  -2.240        -12.237
  -2.238        -12.240
  -2.236        -12.243
  -2.234        -12.247
  -2.231        -12.250
  -2.229        -12.254
  -2.227        -12.257
  -2.225        -12.261
  -2.223        -12.264
  -2.220        -12.268
  -2.218        -12.271
  -2.216        -12.275
  -2.214        -12.279
  -2.212        -12.283
  -2.210        -12.286
  -2.207        -12.290
  -2.205        -12.294
  -2.203        -12.298
  -2.201        -12.302
  -2.199        -12.306
  -2.197        -12.311
  -2.194        -12.315
  -2.192        -12.319
  -2.190        -12.323
  -2.188        -12.328
  -2.186        -12.332
  -2.184        -12.337
  -2.181        -12.341
  -2.179        -12.346
  -2.177        -12.350
  -2.175        -12.355
  -2.173        -12.360
  -2.171        -12.364
  -2.168        -12.369
  -2.166        -12.374
  -2.164        -12.379
  -2.162        -12.384
  -2.160        -12.389
  -2.158        -12.394
  -2.155        -12.400
  -2.153        -12.405
  -2.151        -12.410
  -2.149        -12.415
  -2.147        -12.421
  -2.145        -12.426
  -2.142        -12.432
  -2.140        -12.437
  -2.138        -12.443
  -2.136        -12.449
  -2.134        -12.454
  -2.131        -12.460
  -2.129        -12.466
  -2.127        -12.472
  -2.125        -12.478
  -2.123        -12.484
  -2.121        -12.490
  -2.118        -12.497
  -2.116        -12.503
  -2.114        -12.509
  -2.112        -12.515
  -2.110        -12.522
  -2.108        -12.528
  -2.105        -12.535
  -2.103        -12.542
  -2.101        -12.548
  -2.099        -12.555
  -2.097        -12.562
  -2.095        -12.569
  -2.092        -12.576
  -2.090        -12.583
  -2.088        -12.590
  -2.086        -12.597
  -2.084        -12.604
  -2.082        -12.612
  -2.079        -12.619
  -2.077        -12.626
  -2.075        -12.634
  -2.073        -12.642
  -2.071        -12.649
  -2.069        -12.657
  -2.066        -12.665
  -2.064        -12.673
  -2.062        -12.680
  -2.060        -12.688
  -2.058        -12.697
  -2.056        -12.705
  -2.053        -12.713
  -2.051        -12.721
  -2.049        -12.730
  -2.047        -12.738
  -2.045        -12.747
  -2.043        -12.755
  -2.040        -12.764
  -2.038        -12.773
  -2.036        -12.781
  -2.034        -12.790
  -2.032        -12.799
  -2.029        -12.808
  -2.027        -12.817
  -2.025        -12.827
  -2.023        -12.836
  -2.021        -12.845
  -2.019        -12.855
  -2.016        -12.864
  -2.014        -12.874
  -2.012        -12.884
  -2.010        -12.893
  -2.008        -12.903
  -2.006        -12.913
  -2.003        -12.923
  -2.001        -12.933
  -1.999        -12.943
  -1.997        -12.954
  -1.995        -12.964
  -1.993        -12.974
  -1.990        -12.985
  -1.988        -12.995
  -1.986        -13.006
  -1.984        -13.017
  -1.982        -13.028
  -1.980        -13.039
  -1.977        -13.050
  -1.975        -13.061
  -1.973        -13.072
  -1.971        -13.083
  -1.969        -13.095
  -1.967        -13.106
  -1.964        -13.118
  -1.962        -13.129
  -1.960        -13.141
  -1.958        -13.153
  -1.956        -13.165
  -1.953        -13.177
  -1.951        -13.189
  -1.949        -13.201
