# log Energy    log Jnu
# (eV)          (ergs/s/cm2/Hz/Sr)
  -6.864        -20.898
  -6.820        -20.811
  -6.777        -20.724
  -6.734        -20.637
  -6.690        -20.550
  -6.647        -20.464
  -6.603        -20.377
  -6.560        -20.290
  -6.516        -20.203
  -6.473        -20.116
  -6.430        -20.029
  -6.386        -19.943
  -6.343        -19.856
  -6.299        -19.769
  -6.256        -19.682
  -6.212        -19.595
  -6.169        -19.509
  -6.126        -19.422
  -6.082        -19.335
  -6.039        -19.248
  -5.995        -19.161
  -5.952        -19.075
  -5.908        -18.988
  -5.865        -18.901
  -5.822        -18.814
  -5.778        -18.728
  -5.735        -18.641
  -5.691        -18.554
  -5.648        -18.467
  -5.605        -18.381
  -5.561        -18.294
  -5.518        -18.208
  -5.474        -18.121
  -5.431        -18.034
  -5.387        -17.948
  -5.344        -17.861
  -5.300        -17.775
  -5.257        -17.689
  -5.214        -17.602
  -5.170        -17.516
  -5.127        -17.430
  -5.083        -17.343
  -5.040        -17.257
  -4.996        -17.171
  -4.953        -17.085
  -4.910        -16.999
  -4.866        -16.913
  -4.823        -16.828
  -4.779        -16.742
  -4.736        -16.656
  -4.692        -16.571
  -4.649        -16.486
  -4.606        -16.401
  -4.562        -16.317
  -4.519        -16.232
  -4.475        -16.148
  -4.432        -16.064
  -4.388        -15.980
  -4.345        -15.897
  -4.302        -15.814
  -4.258        -15.732
  -4.215        -15.650
  -4.171        -15.568
  -4.128        -15.487
  -4.084        -15.407
  -4.041        -15.328
  -3.998        -15.249
  -3.954        -15.171
  -3.911        -15.094
  -3.867        -15.019
  -3.824        -14.945
  -3.781        -14.872
  -3.737        -14.800
  -3.693        -14.731
  -3.650        -14.664
  -3.607        -14.599
  -3.584        -14.569
  -3.582        -14.561
  -3.580        -14.560
  -3.577        -14.557
  -3.575        -14.554
  -3.573        -14.551
  -3.571        -14.548
  -3.569        -14.545
  -3.567        -14.542
  -3.564        -14.539
  -3.562        -14.536
  -3.560        -14.533
  -3.558        -14.530
  -3.556        -14.527
  -3.554        -14.524
  -3.551        -14.521
  -3.549        -14.518
  -3.547        -14.515
  -3.545        -14.512
  -3.543        -14.509
  -3.540        -14.506
  -3.538        -14.503
  -3.536        -14.500
  -3.534        -14.497
  -3.532        -14.494
  -3.530        -14.491
  -3.528        -14.488
  -3.525        -14.485
  -3.523        -14.482
  -3.521        -14.479
  -3.519        -14.476
  -3.517        -14.473
  -3.514        -14.470
  -3.512        -14.468
  -3.510        -14.465
  -3.508        -14.462
  -3.506        -14.459
  -3.504        -14.456
  -3.502        -14.453
  -3.499        -14.451
  -3.497        -14.448
  -3.495        -14.445
  -3.493        -14.442
  -3.491        -14.439
  -3.488        -14.436
  -3.486        -14.434
  -3.484        -14.431
  -3.482        -14.428
  -3.480        -14.426
  -3.477        -14.423
  -3.475        -14.420
  -3.473        -14.417
  -3.471        -14.415
  -3.469        -14.412
  -3.467        -14.409
  -3.464        -14.407
  -3.462        -14.404
  -3.460        -14.401
  -3.458        -14.399
  -3.456        -14.396
  -3.454        -14.393
  -3.451        -14.391
  -3.449        -14.388
  -3.447        -14.385
  -3.445        -14.383
  -3.443        -14.380
  -3.441        -14.378
  -3.438        -14.375
  -3.436        -14.373
  -3.434        -14.370
  -3.432        -14.368
  -3.430        -14.365
  -3.428        -14.363
  -3.425        -14.360
  -3.423        -14.358
  -3.421        -14.355
  -3.419        -14.353
  -3.417        -14.350
  -3.415        -14.348
  -3.412        -14.345
  -3.410        -14.343
  -3.408        -14.341
  -3.406        -14.338
  -3.404        -14.336
  -3.402        -14.333
  -3.399        -14.331
  -3.397        -14.329
  -3.395        -14.326
  -3.393        -14.324
  -3.391        -14.322
  -3.389        -14.319
  -3.386        -14.317
  -3.384        -14.315
  -3.382        -14.313
  -3.380        -14.310
  -3.378        -14.308
  -3.376        -14.306
  -3.373        -14.304
  -3.371        -14.301
  -3.369        -14.299
  -3.367        -14.297
  -3.365        -14.295
  -3.362        -14.293
  -3.360        -14.291
  -3.358        -14.289
  -3.356        -14.286
  -3.354        -14.284
  -3.352        -14.282
  -3.349        -14.280
  -3.347        -14.278
  -3.345        -14.276
  -3.343        -14.274
  -3.341        -14.272
  -3.339        -14.270
  -3.336        -14.268
  -3.334        -14.266
  -3.332        -14.264
  -3.330        -14.262
  -3.328        -14.260
  -3.326        -14.258
  -3.323        -14.256
  -3.321        -14.255
  -3.319        -14.253
  -3.317        -14.251
  -3.315        -14.249
  -3.313        -14.247
  -3.310        -14.245
  -3.308        -14.244
  -3.306        -14.242
  -3.304        -14.240
  -3.302        -14.238
  -3.300        -14.237
  -3.297        -14.235
  -3.295        -14.233
  -3.293        -14.231
  -3.291        -14.230
  -3.289        -14.228
  -3.287        -14.227
  -3.284        -14.225
  -3.282        -14.223
  -3.280        -14.222
  -3.278        -14.220
  -3.276        -14.219
  -3.273        -14.217
  -3.271        -14.216
  -3.269        -14.214
  -3.267        -14.213
  -3.265        -14.211
  -3.263        -14.210
  -3.260        -14.208
  -3.258        -14.207
  -3.256        -14.205
  -3.254        -14.204
  -3.252        -14.203
  -3.250        -14.201
  -3.247        -14.200
  -3.245        -14.199
  -3.243        -14.197
  -3.241        -14.196
  -3.239        -14.195
  -3.237        -14.194
  -3.234        -14.193
  -3.232        -14.191
  -3.230        -14.190
  -3.228        -14.189
  -3.226        -14.188
  -3.224        -14.186
  -3.221        -14.185
  -3.219        -14.184
  -3.217        -14.184
  -3.215        -14.182
  -3.213        -14.182
  -3.211        -14.180
  -3.208        -14.179
  -3.206        -14.179
  -3.204        -14.178
  -3.202        -14.177
  -3.200        -14.176
  -3.197        -14.175
  -3.195        -14.174
  -3.193        -14.173
  -3.191        -14.172
  -3.189        -14.172
  -3.187        -14.171
  -3.184        -14.170
  -3.182        -14.169
  -3.180        -14.169
  -3.178        -14.168
  -3.176        -14.167
  -3.174        -14.167
  -3.171        -14.166
  -3.169        -14.165
  -3.167        -14.165
  -3.165        -14.164
  -3.163        -14.164
  -3.161        -14.163
  -3.158        -14.163
  -3.156        -14.162
  -3.154        -14.162
  -3.152        -14.162
  -3.150        -14.161
  -3.148        -14.161
  -3.145        -14.161
  -3.143        -14.160
  -3.141        -14.160
  -3.139        -14.160
  -3.137        -14.160
  -3.135        -14.159
  -3.132        -14.159
  -3.130        -14.159
  -3.128        -14.159
  -3.126        -14.159
  -3.124        -14.159
  -3.122        -14.159
  -3.119        -14.159
  -3.117        -14.159
  -3.115        -14.159
  -3.113        -14.159
  -3.111        -14.159
  -3.108        -14.159
  -3.106        -14.159
  -3.104        -14.159
  -3.102        -14.160
  -3.100        -14.160
  -3.098        -14.160
  -3.095        -14.160
  -3.093        -14.161
  -3.091        -14.161
  -3.089        -14.162
  -3.087        -14.162
  -3.085        -14.162
  -3.082        -14.163
  -3.080        -14.163
  -3.078        -14.164
  -3.076        -14.164
  -3.074        -14.165
  -3.072        -14.166
  -3.069        -14.166
  -3.067        -14.167
  -3.065        -14.168
  -3.063        -14.168
  -3.061        -14.169
  -3.059        -14.170
  -3.056        -14.171
  -3.054        -14.172
  -3.052        -14.172
  -3.050        -14.173
  -3.048        -14.174
  -3.046        -14.175
  -3.043        -14.176
  -3.041        -14.177
  -3.039        -14.179
  -3.037        -14.180
  -3.035        -14.181
  -3.032        -14.182
  -3.030        -14.183
  -3.028        -14.185
  -3.026        -14.186
  -3.024        -14.187
  -3.022        -14.188
  -3.019        -14.190
  -3.017        -14.191
  -3.015        -14.193
  -3.013        -14.194
  -3.011        -14.196
  -3.009        -14.198
  -3.006        -14.199
  -3.004        -14.201
  -3.002        -14.202
  -3.000        -14.204
  -2.998        -14.206
  -2.996        -14.208
  -2.993        -14.210
  -2.991        -14.212
  -2.989        -14.213
  -2.987        -14.215
  -2.985        -14.217
  -2.983        -14.220
  -2.980        -14.221
  -2.978        -14.224
  -2.976        -14.226
  -2.974        -14.228
  -2.972        -14.230
  -2.970        -14.233
  -2.967        -14.235
  -2.965        -14.237
  -2.963        -14.240
  -2.961        -14.242
  -2.959        -14.245
  -2.956        -14.247
  -2.954        -14.250
  -2.952        -14.252
  -2.950        -14.255
  -2.948        -14.258
  -2.946        -14.260
  -2.944        -14.263
  -2.941        -14.266
  -2.939        -14.269
  -2.937        -14.272
  -2.935        -14.275
  -2.933        -14.278
  -2.930        -14.281
  -2.928        -14.284
  -2.926        -14.287
  -2.924        -14.290
  -2.922        -14.294
  -2.920        -14.297
  -2.917        -14.300
  -2.915        -14.304
  -2.913        -14.307
  -2.911        -14.310
  -2.909        -14.314
  -2.907        -14.317
  -2.904        -14.321
  -2.902        -14.325
  -2.900        -14.328
  -2.898        -14.332
  -2.896        -14.336
  -2.894        -14.340
  -2.891        -14.344
  -2.889        -14.348
  -2.887        -14.352
  -2.885        -14.356
  -2.883        -14.360
  -2.880        -14.364
  -2.878        -14.368
  -2.876        -14.372
  -2.874        -14.377
  -2.872        -14.381
  -2.870        -14.385
  -2.867        -14.390
  -2.865        -14.395
  -2.863        -14.399
  -2.861        -14.403
  -2.859        -14.409
  -2.857        -14.413
  -2.855        -14.418
  -2.852        -14.423
  -2.850        -14.428
  -2.848        -14.433
  -2.846        -14.438
  -2.843        -14.443
  -2.842        -14.448
  -2.839        -14.453
  -2.837        -14.458
  -2.835        -14.464
  -2.833        -14.469
  -2.831        -14.474
  -2.828        -14.480
  -2.826        -14.486
  -2.824        -14.491
  -2.822        -14.497
  -2.820        -14.502
  -2.817        -14.508
  -2.815        -14.514
  -2.813        -14.520
  -2.811        -14.526
  -2.809        -14.532
  -2.807        -14.538
  -2.805        -14.544
  -2.802        -14.550
  -2.800        -14.557
  -2.798        -14.563
  -2.796        -14.569
  -2.794        -14.576
  -2.792        -14.582
  -2.789        -14.589
  -2.787        -14.596
  -2.785        -14.602
  -2.783        -14.609
  -2.781        -14.616
  -2.779        -14.623
  -2.776        -14.630
  -2.774        -14.637
  -2.772        -14.644
  -2.770        -14.651
  -2.767        -14.659
  -2.765        -14.666
  -2.763        -14.673
  -2.761        -14.680
  -2.759        -14.688
  -2.757        -14.696
  -2.754        -14.703
  -2.753        -14.711
  -2.750        -14.719
  -2.748        -14.727
  -2.746        -14.735
  -2.744        -14.743
  -2.741        -14.751
  -2.739        -14.759
  -2.737        -14.767
  -2.735        -14.775
  -2.733        -14.784
  -2.731        -14.792
  -2.729        -14.801
  -2.726        -14.809
  -2.724        -14.818
  -2.722        -14.827
  -2.720        -14.836
  -2.718        -14.845
  -2.716        -14.854
  -2.713        -14.862
  -2.711        -14.872
  -2.709        -14.881
  -2.707        -14.890
  -2.705        -14.900
  -2.703        -14.909
  -2.700        -14.919
  -2.698        -14.928
  -2.696        -14.938
  -2.694        -14.948
  -2.692        -14.958
  -2.689        -14.968
  -2.687        -14.977
  -2.685        -14.988
  -2.683        -14.998
  -2.681        -15.008
  -2.679        -15.018
  -2.677        -15.029
  -2.674        -15.040
  -2.672        -15.050
  -2.670        -15.061
  -2.668        -15.071
  -2.666        -15.082
  -2.663        -15.093
  -2.661        -15.104
  -2.659        -15.115
  -2.657        -15.127
  -2.655        -15.138
  -2.653        -15.149
  -2.650        -15.161
  -2.648        -15.172
  -2.646        -15.184
  -2.644        -15.196
  -2.642        -15.208
  -2.640        -15.220
  -2.637        -15.232
  -2.635        -15.244
  -2.633        -15.256
  -2.631        -15.268
  -2.629        -15.281
  -2.626        -15.293
  -2.624        -15.306
  -2.622        -15.318
  -2.620        -15.331
  -2.618        -15.344
  -2.616        -15.357
  -2.614        -15.370
  -2.611        -15.383
  -2.609        -15.397
  -2.607        -15.410
  -2.605        -15.423
  -2.603        -15.437
  -2.600        -15.451
  -2.598        -15.464
  -2.596        -15.478
  -2.594        -15.492
  -2.592        -15.506
  -2.590        -15.521
  -2.587        -15.535
  -2.585        -15.549
  -2.583        -15.564
  -2.581        -15.578
  -2.579        -15.593
  -2.577        -15.608
  -2.574        -15.623
  -2.572        -15.638
  -2.570        -15.653
  -2.568        -15.668
  -2.566        -15.683
  -2.564        -15.699
  -2.561        -15.714
  -2.559        -15.730
  -2.557        -15.746
  -2.555        -15.762
  -2.553        -15.778
  -2.551        -15.794
  -2.548        -15.810
  -2.546        -15.827
  -2.544        -15.843
  -2.542        -15.860
  -2.540        -15.876
  -2.538        -15.893
  -2.535        -15.910
  -2.533        -15.927
  -2.531        -15.944
  -2.529        -15.962
  -2.527        -15.979
  -2.525        -15.997
  -2.522        -16.014
  -2.520        -16.032
  -2.518        -16.050
  -2.516        -16.068
  -2.514        -16.086
  -2.511        -16.104
  -2.509        -16.123
  -2.507        -16.141
  -2.505        -16.160
  -2.503        -16.179
  -2.501        -16.198
  -2.498        -16.217
  -2.496        -16.236
  -2.494        -16.255
  -2.492        -16.274
  -2.490        -16.294
  -2.488        -16.314
  -2.485        -16.333
  -2.483        -16.353
  -2.481        -16.373
  -2.479        -16.394
  -2.477        -16.414
  -2.475        -16.434
  -2.472        -16.455
  -2.470        -16.476
  -2.468        -16.496
  -2.466        -16.518
  -2.464        -16.539
  -2.462        -16.560
  -2.459        -16.581
  -2.457        -16.603
  -2.455        -16.625
  -2.453        -16.646
  -2.451        -16.668
  -2.448        -16.691
  -2.446        -16.713
  -2.444        -16.735
  -2.442        -16.758
  -2.440        -16.780
  -2.438        -16.803
  -2.435        -16.826
  -2.433        -16.849
  -2.431        -16.873
  -2.429        -16.896
  -2.427        -16.920
  -2.425        -16.943
  -2.422        -16.967
  -2.420        -16.991
  -2.418        -17.016
  -2.416        -17.040
  -2.414        -17.065
  -2.412        -17.089
  -2.409        -17.114
  -2.407        -17.139
  -2.405        -17.164
  -2.403        -17.189
  -2.401        -17.215
  -2.398        -17.240
  -2.396        -17.266
  -2.394        -17.292
  -2.392        -17.318
  -2.390        -17.344
  -2.388        -17.371
  -2.386        -17.397
  -2.383        -17.424
  -2.381        -17.451
  -2.379        -17.478
  -2.377        -17.505
  -2.375        -17.532
  -2.372        -17.560
  -2.370        -17.588
  -2.368        -17.616
  -2.366        -17.644
  -2.364        -17.672
  -2.362        -17.700
  -2.359        -17.729
  -2.357        -17.758
  -2.355        -17.787
  -2.353        -17.816
  -2.351        -17.845
  -2.349        -17.874
  -2.346        -17.904
  -2.344        -17.934
  -2.342        -17.964
  -2.340        -17.994
  -2.338        -18.024
  -2.336        -18.054
  -2.333        -18.085
  -2.331        -18.116
  -2.329        -18.147
  -2.327        -18.178
  -2.325        -18.209
  -2.323        -18.240
  -2.320        -18.272
  -2.318        -18.304
  -2.316        -18.336
  -2.314        -18.368
  -2.312        -18.400
  -2.309        -18.432
  -2.307        -18.465
  -2.305        -18.497
  -2.303        -18.530
  -2.301        -18.563
  -2.299        -18.596
  -2.297        -18.629
  -2.294        -18.662
  -2.292        -18.696
  -2.290        -18.729
  -2.288        -18.763
  -2.286        -18.796
  -2.283        -18.830
  -2.281        -18.864
  -2.279        -18.897
  -2.277        -18.931
  -2.275        -18.965
  -2.273        -18.998
  -2.270        -19.032
  -2.268        -19.066
  -2.266        -19.099
  -2.264        -19.132
  -2.262        -19.166
  -2.260        -19.199
  -2.257        -19.231
  -2.255        -19.264
  -2.253        -19.296
  -2.251        -19.328
  -2.249        -19.359
  -2.247        -19.390
  -2.244        -19.421
  -2.242        -19.451
  -2.240        -19.480
  -2.238        -19.509
  -2.236        -19.536
  -2.234        -19.564
  -2.231        -19.590
  -2.229        -19.615
  -2.227        -19.640
  -2.225        -19.663
  -2.223        -19.686
  -2.220        -19.707
  -2.218        -19.728
  -2.216        -19.747
  -2.214        -19.765
  -2.212        -19.782
  -2.210        -19.798
  -2.207        -19.813
  -2.205        -19.826
  -2.203        -19.838
  -2.201        -19.850
  -2.199        -19.860
  -2.197        -19.869
  -2.194        -19.877
  -2.192        -19.884
  -2.190        -19.890
  -2.188        -19.896
  -2.186        -19.900
  -2.184        -19.904
  -2.181        -19.907
  -2.179        -19.909
  -2.177        -19.911
  -2.175        -19.912
  -2.173        -19.913
  -2.171        -19.913
  -2.168        -19.912
  -2.166        -19.912
  -2.164        -19.911
  -2.162        -19.909
  -2.160        -19.907
  -2.158        -19.905
  -2.155        -19.903
  -2.153        -19.901
  -2.151        -19.898
  -2.149        -19.895
  -2.147        -19.892
  -2.145        -19.889
  -2.142        -19.885
  -2.140        -19.882
  -2.138        -19.878
  -2.136        -19.875
  -2.134        -19.871
  -2.131        -19.867
  -2.129        -19.863
  -2.127        -19.860
  -2.125        -19.856
  -2.123        -19.852
  -2.121        -19.848
  -2.118        -19.843
  -2.116        -19.839
  -2.114        -19.835
  -2.112        -19.831
  -2.110        -19.827
  -2.108        -19.823
  -2.105        -19.818
  -2.103        -19.814
  -2.101        -19.810
  -2.099        -19.806
  -2.097        -19.801
  -2.095        -19.797
  -2.092        -19.793
  -2.090        -19.788
  -2.088        -19.784
  -2.086        -19.780
  -2.084        -19.775
  -2.082        -19.771
  -2.079        -19.767
  -2.077        -19.763
  -2.075        -19.758
  -2.073        -19.754
  -2.071        -19.750
  -2.069        -19.745
  -2.066        -19.741
  -2.064        -19.737
  -2.062        -19.732
  -2.060        -19.728
  -2.058        -19.724
  -2.056        -19.719
  -2.053        -19.715
  -2.051        -19.710
  -2.049        -19.706
  -2.047        -19.702
  -2.045        -19.698
  -2.043        -19.693
  -2.040        -19.689
  -2.038        -19.684
  -2.036        -19.680
  -2.034        -19.676
  -2.032        -19.671
  -2.029        -19.667
  -2.027        -19.663
  -2.025        -19.658
  -2.023        -19.654
  -2.021        -19.650
  -2.019        -19.645
  -2.016        -19.641
  -2.014        -19.637
  -2.012        -19.632
  -2.010        -19.628
  -2.008        -19.624
  -2.006        -19.619
  -2.003        -19.615
  -2.001        -19.611
  -1.999        -19.606
  -1.997        -19.602
  -1.995        -19.598
  -1.993        -19.593
  -1.990        -19.589
  -1.988        -19.587
  -1.986        -19.587
  -1.984        -19.588
  -1.982        -19.589
  -1.980        -19.590
  -1.977        -19.591
  -1.975        -19.592
  -1.973        -19.592
  -1.971        -19.593
  -1.969        -19.594
  -1.967        -19.595
  -1.964        -19.596
  -1.962        -19.597
  -1.960        -19.598
  -1.958        -19.599
  -1.956        -19.599
  -1.953        -19.600
  -1.951        -19.601
  -1.949        -19.602
