# log Energy    log Jnu
# (eV)          (ergs/s/cm2/Hz/Sr)
  -6.864        -20.445
  -6.820        -20.359
  -6.777        -20.272
  -6.734        -20.185
  -6.690        -20.098
  -6.647        -20.011
  -6.603        -19.924
  -6.560        -19.837
  -6.516        -19.751
  -6.473        -19.664
  -6.430        -19.577
  -6.386        -19.490
  -6.343        -19.403
  -6.299        -19.316
  -6.256        -19.230
  -6.212        -19.143
  -6.169        -19.056
  -6.126        -18.969
  -6.082        -18.882
  -6.039        -18.795
  -5.995        -18.709
  -5.952        -18.622
  -5.908        -18.535
  -5.865        -18.448
  -5.822        -18.361
  -5.778        -18.274
  -5.735        -18.188
  -5.691        -18.101
  -5.648        -18.014
  -5.605        -17.927
  -5.561        -17.841
  -5.518        -17.754
  -5.474        -17.667
  -5.431        -17.580
  -5.387        -17.493
  -5.344        -17.407
  -5.300        -17.320
  -5.257        -17.233
  -5.214        -17.147
  -5.170        -17.060
  -5.127        -16.973
  -5.083        -16.887
  -5.040        -16.800
  -4.996        -16.713
  -4.953        -16.627
  -4.910        -16.540
  -4.866        -16.454
  -4.823        -16.367
  -4.779        -16.281
  -4.736        -16.195
  -4.692        -16.108
  -4.649        -16.022
  -4.606        -15.936
  -4.562        -15.850
  -4.519        -15.764
  -4.475        -15.678
  -4.432        -15.592
  -4.388        -15.506
  -4.345        -15.421
  -4.302        -15.335
  -4.258        -15.250
  -4.215        -15.165
  -4.171        -15.080
  -4.128        -14.995
  -4.084        -14.910
  -4.041        -14.826
  -3.998        -14.742
  -3.954        -14.658
  -3.911        -14.575
  -3.867        -14.491
  -3.824        -14.409
  -3.781        -14.327
  -3.737        -14.245
  -3.693        -14.164
  -3.650        -14.083
  -3.607        -14.004
  -3.584        -13.967
  -3.582        -13.957
  -3.580        -13.955
  -3.577        -13.952
  -3.575        -13.948
  -3.573        -13.944
  -3.571        -13.940
  -3.569        -13.936
  -3.567        -13.932
  -3.564        -13.928
  -3.562        -13.924
  -3.560        -13.920
  -3.558        -13.916
  -3.556        -13.913
  -3.554        -13.908
  -3.551        -13.905
  -3.549        -13.901
  -3.547        -13.897
  -3.545        -13.893
  -3.543        -13.889
  -3.540        -13.885
  -3.538        -13.881
  -3.536        -13.877
  -3.534        -13.873
  -3.532        -13.870
  -3.530        -13.866
  -3.528        -13.862
  -3.525        -13.858
  -3.523        -13.854
  -3.521        -13.850
  -3.519        -13.846
  -3.517        -13.842
  -3.514        -13.839
  -3.512        -13.835
  -3.510        -13.830
  -3.508        -13.827
  -3.506        -13.823
  -3.504        -13.819
  -3.502        -13.815
  -3.499        -13.811
  -3.497        -13.807
  -3.495        -13.804
  -3.493        -13.800
  -3.491        -13.796
  -3.488        -13.792
  -3.486        -13.788
  -3.484        -13.784
  -3.482        -13.780
  -3.480        -13.777
  -3.477        -13.773
  -3.475        -13.769
  -3.473        -13.765
  -3.471        -13.761
  -3.469        -13.758
  -3.467        -13.754
  -3.464        -13.750
  -3.462        -13.746
  -3.460        -13.742
  -3.458        -13.738
  -3.456        -13.735
  -3.454        -13.731
  -3.451        -13.727
  -3.449        -13.723
  -3.447        -13.719
  -3.445        -13.716
  -3.443        -13.712
  -3.441        -13.708
  -3.438        -13.704
  -3.436        -13.700
  -3.434        -13.697
  -3.432        -13.693
  -3.430        -13.689
  -3.428        -13.686
  -3.425        -13.682
  -3.423        -13.678
  -3.421        -13.674
  -3.419        -13.670
  -3.417        -13.667
  -3.415        -13.663
  -3.412        -13.659
  -3.410        -13.655
  -3.408        -13.652
  -3.406        -13.648
  -3.404        -13.644
  -3.402        -13.640
  -3.399        -13.637
  -3.397        -13.633
  -3.395        -13.629
  -3.393        -13.625
  -3.391        -13.622
  -3.389        -13.618
  -3.386        -13.614
  -3.384        -13.611
  -3.382        -13.607
  -3.380        -13.603
  -3.378        -13.600
  -3.376        -13.596
  -3.373        -13.592
  -3.371        -13.588
  -3.369        -13.585
  -3.367        -13.581
  -3.365        -13.577
  -3.362        -13.574
  -3.360        -13.570
  -3.358        -13.567
  -3.356        -13.563
  -3.354        -13.559
  -3.352        -13.555
  -3.349        -13.552
  -3.347        -13.548
  -3.345        -13.545
  -3.343        -13.541
  -3.341        -13.537
  -3.339        -13.534
  -3.336        -13.530
  -3.334        -13.527
  -3.332        -13.523
  -3.330        -13.519
  -3.328        -13.516
  -3.326        -13.512
  -3.323        -13.508
  -3.321        -13.505
  -3.319        -13.501
  -3.317        -13.498
  -3.315        -13.494
  -3.313        -13.490
  -3.310        -13.487
  -3.308        -13.483
  -3.306        -13.480
  -3.304        -13.476
  -3.302        -13.473
  -3.300        -13.469
  -3.297        -13.466
  -3.295        -13.462
  -3.293        -13.458
  -3.291        -13.455
  -3.289        -13.451
  -3.287        -13.448
  -3.284        -13.444
  -3.282        -13.441
  -3.280        -13.437
  -3.278        -13.434
  -3.276        -13.430
  -3.273        -13.427
  -3.271        -13.423
  -3.269        -13.420
  -3.267        -13.416
  -3.265        -13.413
  -3.263        -13.409
  -3.260        -13.406
  -3.258        -13.402
  -3.256        -13.399
  -3.254        -13.396
  -3.252        -13.392
  -3.250        -13.389
  -3.247        -13.385
  -3.245        -13.382
  -3.243        -13.378
  -3.241        -13.375
  -3.239        -13.372
  -3.237        -13.368
  -3.234        -13.365
  -3.232        -13.361
  -3.230        -13.358
  -3.228        -13.354
  -3.226        -13.351
  -3.224        -13.348
  -3.221        -13.344
  -3.219        -13.341
  -3.217        -13.338
  -3.215        -13.334
  -3.213        -13.331
  -3.211        -13.327
  -3.208        -13.324
  -3.206        -13.321
  -3.204        -13.317
  -3.202        -13.314
  -3.200        -13.311
  -3.197        -13.308
  -3.195        -13.304
  -3.193        -13.301
  -3.191        -13.298
  -3.189        -13.294
  -3.187        -13.291
  -3.184        -13.288
  -3.182        -13.285
  -3.180        -13.281
  -3.178        -13.278
  -3.176        -13.275
  -3.174        -13.271
  -3.171        -13.268
  -3.169        -13.265
  -3.167        -13.262
  -3.165        -13.259
  -3.163        -13.255
  -3.161        -13.252
  -3.158        -13.249
  -3.156        -13.245
  -3.154        -13.243
  -3.152        -13.239
  -3.150        -13.236
  -3.148        -13.233
  -3.145        -13.230
  -3.143        -13.226
  -3.141        -13.223
  -3.139        -13.220
  -3.137        -13.217
  -3.135        -13.214
  -3.132        -13.211
  -3.130        -13.208
  -3.128        -13.204
  -3.126        -13.201
  -3.124        -13.198
  -3.122        -13.195
  -3.119        -13.192
  -3.117        -13.189
  -3.115        -13.186
  -3.113        -13.183
  -3.111        -13.180
  -3.108        -13.177
  -3.106        -13.174
  -3.104        -13.171
  -3.102        -13.168
  -3.100        -13.165
  -3.098        -13.162
  -3.095        -13.159
  -3.093        -13.156
  -3.091        -13.153
  -3.089        -13.150
  -3.087        -13.147
  -3.085        -13.144
  -3.082        -13.141
  -3.080        -13.138
  -3.078        -13.135
  -3.076        -13.132
  -3.074        -13.129
  -3.072        -13.126
  -3.069        -13.123
  -3.067        -13.120
  -3.065        -13.117
  -3.063        -13.114
  -3.061        -13.112
  -3.059        -13.109
  -3.056        -13.106
  -3.054        -13.103
  -3.052        -13.100
  -3.050        -13.097
  -3.048        -13.095
  -3.046        -13.092
  -3.043        -13.089
  -3.041        -13.086
  -3.039        -13.083
  -3.037        -13.081
  -3.035        -13.078
  -3.032        -13.075
  -3.030        -13.072
  -3.028        -13.069
  -3.026        -13.067
  -3.024        -13.064
  -3.022        -13.061
  -3.019        -13.059
  -3.017        -13.056
  -3.015        -13.053
  -3.013        -13.051
  -3.011        -13.048
  -3.009        -13.045
  -3.006        -13.043
  -3.004        -13.040
  -3.002        -13.037
  -3.000        -13.035
  -2.998        -13.032
  -2.996        -13.030
  -2.993        -13.027
  -2.991        -13.024
  -2.989        -13.022
  -2.987        -13.019
  -2.985        -13.017
  -2.983        -13.014
  -2.980        -13.011
  -2.978        -13.009
  -2.976        -13.007
  -2.974        -13.004
  -2.972        -13.001
  -2.970        -12.999
  -2.967        -12.997
  -2.965        -12.994
  -2.963        -12.992
  -2.961        -12.989
  -2.959        -12.987
  -2.956        -12.984
  -2.954        -12.982
  -2.952        -12.980
  -2.950        -12.977
  -2.948        -12.975
  -2.946        -12.973
  -2.944        -12.970
  -2.941        -12.968
  -2.939        -12.966
  -2.937        -12.963
  -2.935        -12.961
  -2.933        -12.959
  -2.930        -12.956
  -2.928        -12.954
  -2.926        -12.952
  -2.924        -12.950
  -2.922        -12.947
  -2.920        -12.945
  -2.917        -12.943
  -2.915        -12.941
  -2.913        -12.939
  -2.911        -12.937
  -2.909        -12.935
  -2.907        -12.932
  -2.904        -12.930
  -2.902        -12.928
  -2.900        -12.926
  -2.898        -12.924
  -2.896        -12.922
  -2.894        -12.920
  -2.891        -12.918
  -2.889        -12.916
  -2.887        -12.914
  -2.885        -12.912
  -2.883        -12.910
  -2.880        -12.908
  -2.878        -12.906
  -2.876        -12.904
  -2.874        -12.902
  -2.872        -12.900
  -2.870        -12.898
  -2.867        -12.897
  -2.865        -12.895
  -2.863        -12.893
  -2.861        -12.891
  -2.859        -12.889
  -2.857        -12.887
  -2.855        -12.885
  -2.852        -12.884
  -2.850        -12.882
  -2.848        -12.880
  -2.846        -12.878
  -2.843        -12.877
  -2.842        -12.875
  -2.839        -12.874
  -2.837        -12.872
  -2.835        -12.870
  -2.833        -12.869
  -2.831        -12.867
  -2.828        -12.865
  -2.826        -12.864
  -2.824        -12.862
  -2.822        -12.861
  -2.820        -12.859
  -2.817        -12.858
  -2.815        -12.856
  -2.813        -12.855
  -2.811        -12.853
  -2.809        -12.852
  -2.807        -12.850
  -2.805        -12.849
  -2.802        -12.848
  -2.800        -12.846
  -2.798        -12.845
  -2.796        -12.844
  -2.794        -12.842
  -2.792        -12.841
  -2.789        -12.839
  -2.787        -12.838
  -2.785        -12.837
  -2.783        -12.836
  -2.781        -12.835
  -2.779        -12.834
  -2.776        -12.833
  -2.774        -12.831
  -2.772        -12.830
  -2.770        -12.829
  -2.767        -12.828
  -2.765        -12.827
  -2.763        -12.826
  -2.761        -12.825
  -2.759        -12.824
  -2.757        -12.823
  -2.754        -12.822
  -2.753        -12.821
  -2.750        -12.820
  -2.748        -12.819
  -2.746        -12.818
  -2.744        -12.817
  -2.741        -12.817
  -2.739        -12.816
  -2.737        -12.815
  -2.735        -12.814
  -2.733        -12.813
  -2.731        -12.813
  -2.729        -12.812
  -2.726        -12.811
  -2.724        -12.811
  -2.722        -12.810
  -2.720        -12.809
  -2.718        -12.809
  -2.716        -12.808
  -2.713        -12.808
  -2.711        -12.807
  -2.709        -12.807
  -2.707        -12.806
  -2.705        -12.806
  -2.703        -12.805
  -2.700        -12.805
  -2.698        -12.804
  -2.696        -12.804
  -2.694        -12.804
  -2.692        -12.804
  -2.689        -12.803
  -2.687        -12.803
  -2.685        -12.803
  -2.683        -12.802
  -2.681        -12.802
  -2.679        -12.802
  -2.677        -12.802
  -2.674        -12.802
  -2.672        -12.802
  -2.670        -12.802
  -2.668        -12.802
  -2.666        -12.802
  -2.663        -12.802
  -2.661        -12.802
  -2.659        -12.802
  -2.657        -12.802
  -2.655        -12.802
  -2.653        -12.802
  -2.650        -12.803
  -2.648        -12.803
  -2.646        -12.803
  -2.644        -12.803
  -2.642        -12.803
  -2.640        -12.804
  -2.637        -12.804
  -2.635        -12.805
  -2.633        -12.805
  -2.631        -12.806
  -2.629        -12.806
  -2.626        -12.807
  -2.624        -12.807
  -2.622        -12.808
  -2.620        -12.808
  -2.618        -12.809
  -2.616        -12.810
  -2.614        -12.810
  -2.611        -12.811
  -2.609        -12.812
  -2.607        -12.813
  -2.605        -12.813
  -2.603        -12.815
  -2.600        -12.815
  -2.598        -12.816
  -2.596        -12.817
  -2.594        -12.818
  -2.592        -12.819
  -2.590        -12.820
  -2.587        -12.821
  -2.585        -12.823
  -2.583        -12.824
  -2.581        -12.825
  -2.579        -12.826
  -2.577        -12.827
  -2.574        -12.828
  -2.572        -12.830
  -2.570        -12.831
  -2.568        -12.833
  -2.566        -12.834
  -2.564        -12.836
  -2.561        -12.837
  -2.559        -12.839
  -2.557        -12.840
  -2.555        -12.842
  -2.553        -12.843
  -2.551        -12.845
  -2.548        -12.847
  -2.546        -12.849
  -2.544        -12.850
  -2.542        -12.852
  -2.540        -12.854
  -2.538        -12.856
  -2.535        -12.858
  -2.533        -12.860
  -2.531        -12.862
  -2.529        -12.864
  -2.527        -12.866
  -2.525        -12.868
  -2.522        -12.871
  -2.520        -12.873
  -2.518        -12.875
  -2.516        -12.877
  -2.514        -12.879
  -2.511        -12.882
  -2.509        -12.885
  -2.507        -12.887
  -2.505        -12.889
  -2.503        -12.892
  -2.501        -12.895
  -2.498        -12.897
  -2.496        -12.900
  -2.494        -12.903
  -2.492        -12.905
  -2.490        -12.908
  -2.488        -12.911
  -2.485        -12.914
  -2.483        -12.917
  -2.481        -12.920
  -2.479        -12.923
  -2.477        -12.926
  -2.475        -12.929
  -2.472        -12.932
  -2.470        -12.935
  -2.468        -12.939
  -2.466        -12.942
  -2.464        -12.945
  -2.462        -12.949
  -2.459        -12.952
  -2.457        -12.956
  -2.455        -12.959
  -2.453        -12.963
  -2.451        -12.966
  -2.448        -12.970
  -2.446        -12.974
  -2.444        -12.978
  -2.442        -12.981
  -2.440        -12.986
  -2.438        -12.989
  -2.435        -12.993
  -2.433        -12.997
  -2.431        -13.002
  -2.429        -13.006
  -2.427        -13.010
  -2.425        -13.014
  -2.422        -13.018
  -2.420        -13.023
  -2.418        -13.027
  -2.416        -13.032
  -2.414        -13.036
  -2.412        -13.041
  -2.409        -13.046
  -2.407        -13.050
  -2.405        -13.055
  -2.403        -13.059
  -2.401        -13.064
  -2.398        -13.069
  -2.396        -13.074
  -2.394        -13.079
  -2.392        -13.084
  -2.390        -13.089
  -2.388        -13.094
  -2.386        -13.100
  -2.383        -13.105
  -2.381        -13.110
  -2.379        -13.116
  -2.377        -13.121
  -2.375        -13.127
  -2.372        -13.132
  -2.370        -13.138
  -2.368        -13.144
  -2.366        -13.149
  -2.364        -13.155
  -2.362        -13.161
  -2.359        -13.167
  -2.357        -13.173
  -2.355        -13.179
  -2.353        -13.185
  -2.351        -13.191
  -2.349        -13.198
  -2.346        -13.204
  -2.344        -13.210
  -2.342        -13.217
  -2.340        -13.223
  -2.338        -13.230
  -2.336        -13.236
  -2.333        -13.243
  -2.331        -13.250
  -2.329        -13.257
  -2.327        -13.264
  -2.325        -13.271
  -2.323        -13.278
  -2.320        -13.285
  -2.318        -13.292
  -2.316        -13.299
  -2.314        -13.306
  -2.312        -13.314
  -2.309        -13.321
  -2.307        -13.329
  -2.305        -13.336
  -2.303        -13.344
  -2.301        -13.352
  -2.299        -13.359
  -2.297        -13.367
  -2.294        -13.375
  -2.292        -13.383
  -2.290        -13.391
  -2.288        -13.399
  -2.286        -13.408
  -2.283        -13.416
  -2.281        -13.424
  -2.279        -13.433
  -2.277        -13.441
  -2.275        -13.450
  -2.273        -13.458
  -2.270        -13.467
  -2.268        -13.476
  -2.266        -13.485
  -2.264        -13.494
  -2.262        -13.503
  -2.260        -13.512
  -2.257        -13.521
  -2.255        -13.530
  -2.253        -13.540
  -2.251        -13.549
  -2.249        -13.558
  -2.247        -13.568
  -2.244        -13.578
  -2.242        -13.588
  -2.240        -13.597
  -2.238        -13.607
  -2.236        -13.617
  -2.234        -13.627
  -2.231        -13.638
  -2.229        -13.648
  -2.227        -13.658
  -2.225        -13.669
  -2.223        -13.679
  -2.220        -13.690
  -2.218        -13.700
  -2.216        -13.711
  -2.214        -13.722
  -2.212        -13.733
  -2.210        -13.744
  -2.207        -13.755
  -2.205        -13.766
  -2.203        -13.777
  -2.201        -13.789
  -2.199        -13.800
  -2.197        -13.812
  -2.194        -13.823
  -2.192        -13.835
  -2.190        -13.847
  -2.188        -13.859
  -2.186        -13.871
  -2.184        -13.883
  -2.181        -13.895
  -2.179        -13.907
  -2.177        -13.920
  -2.175        -13.932
  -2.173        -13.945
  -2.171        -13.957
  -2.168        -13.970
  -2.166        -13.983
  -2.164        -13.996
  -2.162        -14.009
  -2.160        -14.022
  -2.158        -14.035
  -2.155        -14.049
  -2.153        -14.062
  -2.151        -14.076
  -2.149        -14.089
  -2.147        -14.103
  -2.145        -14.117
  -2.142        -14.131
  -2.140        -14.145
  -2.138        -14.159
  -2.136        -14.173
  -2.134        -14.188
  -2.131        -14.202
  -2.129        -14.217
  -2.127        -14.231
  -2.125        -14.246
  -2.123        -14.261
  -2.121        -14.276
  -2.118        -14.291
  -2.116        -14.306
  -2.114        -14.322
  -2.112        -14.337
  -2.110        -14.353
  -2.108        -14.368
  -2.105        -14.384
  -2.103        -14.400
  -2.101        -14.416
  -2.099        -14.432
  -2.097        -14.448
  -2.095        -14.464
  -2.092        -14.481
  -2.090        -14.497
  -2.088        -14.514
  -2.086        -14.531
  -2.084        -14.548
  -2.082        -14.565
  -2.079        -14.582
  -2.077        -14.599
  -2.075        -14.616
  -2.073        -14.634
  -2.071        -14.651
  -2.069        -14.669
  -2.066        -14.687
  -2.064        -14.705
  -2.062        -14.723
  -2.060        -14.741
  -2.058        -14.760
  -2.056        -14.778
  -2.053        -14.797
  -2.051        -14.816
  -2.049        -14.834
  -2.047        -14.853
  -2.045        -14.873
  -2.043        -14.892
  -2.040        -14.911
  -2.038        -14.930
  -2.036        -14.950
  -2.034        -14.970
  -2.032        -14.990
  -2.029        -15.010
  -2.027        -15.030
  -2.025        -15.050
  -2.023        -15.071
  -2.021        -15.091
  -2.019        -15.112
  -2.016        -15.133
  -2.014        -15.153
  -2.012        -15.175
  -2.010        -15.196
  -2.008        -15.217
  -2.006        -15.239
  -2.003        -15.260
  -2.001        -15.282
  -1.999        -15.304
  -1.997        -15.326
  -1.995        -15.348
  -1.993        -15.371
  -1.990        -15.393
  -1.988        -15.416
  -1.986        -15.439
  -1.984        -15.462
  -1.982        -15.485
  -1.980        -15.508
  -1.977        -15.531
  -1.975        -15.555
  -1.973        -15.578
  -1.971        -15.602
  -1.969        -15.626
  -1.967        -15.650
  -1.964        -15.675
  -1.962        -15.699
  -1.960        -15.724
  -1.958        -15.749
  -1.956        -15.773
  -1.953        -15.798
  -1.951        -15.824
  -1.949        -15.849
