# log Energy    log Jnu
# (eV)          (ergs/s/cm2/Hz/Sr)
  -6.864        -20.773
  -6.820        -20.686
  -6.777        -20.599
  -6.734        -20.512
  -6.690        -20.426
  -6.647        -20.339
  -6.603        -20.252
  -6.560        -20.165
  -6.516        -20.078
  -6.473        -19.991
  -6.430        -19.904
  -6.386        -19.818
  -6.343        -19.731
  -6.299        -19.644
  -6.256        -19.557
  -6.212        -19.470
  -6.169        -19.383
  -6.126        -19.297
  -6.082        -19.210
  -6.039        -19.123
  -5.995        -19.036
  -5.952        -18.949
  -5.908        -18.863
  -5.865        -18.776
  -5.822        -18.689
  -5.778        -18.602
  -5.735        -18.516
  -5.691        -18.429
  -5.648        -18.342
  -5.605        -18.255
  -5.561        -18.169
  -5.518        -18.082
  -5.474        -17.995
  -5.431        -17.909
  -5.387        -17.822
  -5.344        -17.736
  -5.300        -17.649
  -5.257        -17.562
  -5.214        -17.476
  -5.170        -17.389
  -5.127        -17.303
  -5.083        -17.217
  -5.040        -17.130
  -4.996        -17.044
  -4.953        -16.958
  -4.910        -16.872
  -4.866        -16.786
  -4.823        -16.700
  -4.779        -16.614
  -4.736        -16.528
  -4.692        -16.442
  -4.649        -16.357
  -4.606        -16.271
  -4.562        -16.186
  -4.519        -16.101
  -4.475        -16.016
  -4.432        -15.932
  -4.388        -15.847
  -4.345        -15.763
  -4.302        -15.679
  -4.258        -15.595
  -4.215        -15.512
  -4.171        -15.429
  -4.128        -15.347
  -4.084        -15.265
  -4.041        -15.183
  -3.998        -15.103
  -3.954        -15.023
  -3.911        -14.943
  -3.867        -14.864
  -3.824        -14.787
  -3.781        -14.710
  -3.737        -14.635
  -3.693        -14.561
  -3.650        -14.488
  -3.607        -14.417
  -3.584        -14.385
  -3.582        -14.376
  -3.580        -14.374
  -3.577        -14.371
  -3.575        -14.368
  -3.573        -14.365
  -3.571        -14.361
  -3.569        -14.358
  -3.567        -14.354
  -3.564        -14.351
  -3.562        -14.348
  -3.560        -14.344
  -3.558        -14.341
  -3.556        -14.337
  -3.554        -14.334
  -3.551        -14.331
  -3.549        -14.327
  -3.547        -14.324
  -3.545        -14.320
  -3.543        -14.317
  -3.540        -14.314
  -3.538        -14.310
  -3.536        -14.307
  -3.534        -14.304
  -3.532        -14.300
  -3.530        -14.297
  -3.528        -14.294
  -3.525        -14.290
  -3.523        -14.287
  -3.521        -14.284
  -3.519        -14.280
  -3.517        -14.277
  -3.514        -14.274
  -3.512        -14.271
  -3.510        -14.267
  -3.508        -14.264
  -3.506        -14.261
  -3.504        -14.257
  -3.502        -14.254
  -3.499        -14.251
  -3.497        -14.248
  -3.495        -14.244
  -3.493        -14.241
  -3.491        -14.238
  -3.488        -14.235
  -3.486        -14.232
  -3.484        -14.228
  -3.482        -14.225
  -3.480        -14.222
  -3.477        -14.219
  -3.475        -14.216
  -3.473        -14.212
  -3.471        -14.209
  -3.469        -14.206
  -3.467        -14.203
  -3.464        -14.200
  -3.462        -14.197
  -3.460        -14.194
  -3.458        -14.190
  -3.456        -14.187
  -3.454        -14.184
  -3.451        -14.181
  -3.449        -14.178
  -3.447        -14.175
  -3.445        -14.172
  -3.443        -14.169
  -3.441        -14.166
  -3.438        -14.163
  -3.436        -14.160
  -3.434        -14.157
  -3.432        -14.154
  -3.430        -14.150
  -3.428        -14.148
  -3.425        -14.144
  -3.423        -14.141
  -3.421        -14.138
  -3.419        -14.135
  -3.417        -14.132
  -3.415        -14.129
  -3.412        -14.126
  -3.410        -14.124
  -3.408        -14.121
  -3.406        -14.118
  -3.404        -14.115
  -3.402        -14.112
  -3.399        -14.109
  -3.397        -14.106
  -3.395        -14.103
  -3.393        -14.100
  -3.391        -14.097
  -3.389        -14.094
  -3.386        -14.092
  -3.384        -14.089
  -3.382        -14.086
  -3.380        -14.083
  -3.378        -14.080
  -3.376        -14.077
  -3.373        -14.074
  -3.371        -14.072
  -3.369        -14.069
  -3.367        -14.066
  -3.365        -14.063
  -3.362        -14.061
  -3.360        -14.057
  -3.358        -14.055
  -3.356        -14.052
  -3.354        -14.049
  -3.352        -14.047
  -3.349        -14.044
  -3.347        -14.041
  -3.345        -14.039
  -3.343        -14.036
  -3.341        -14.033
  -3.339        -14.030
  -3.336        -14.028
  -3.334        -14.025
  -3.332        -14.023
  -3.330        -14.020
  -3.328        -14.017
  -3.326        -14.015
  -3.323        -14.012
  -3.321        -14.009
  -3.319        -14.007
  -3.317        -14.004
  -3.315        -14.002
  -3.313        -13.999
  -3.310        -13.997
  -3.308        -13.994
  -3.306        -13.992
  -3.304        -13.989
  -3.302        -13.987
  -3.300        -13.984
  -3.297        -13.982
  -3.295        -13.979
  -3.293        -13.977
  -3.291        -13.974
  -3.289        -13.972
  -3.287        -13.970
  -3.284        -13.967
  -3.282        -13.965
  -3.280        -13.962
  -3.278        -13.960
  -3.276        -13.958
  -3.273        -13.955
  -3.271        -13.953
  -3.269        -13.951
  -3.267        -13.948
  -3.265        -13.946
  -3.263        -13.944
  -3.260        -13.941
  -3.258        -13.939
  -3.256        -13.937
  -3.254        -13.935
  -3.252        -13.932
  -3.250        -13.930
  -3.247        -13.928
  -3.245        -13.926
  -3.243        -13.923
  -3.241        -13.921
  -3.239        -13.919
  -3.237        -13.917
  -3.234        -13.915
  -3.232        -13.913
  -3.230        -13.911
  -3.228        -13.909
  -3.226        -13.906
  -3.224        -13.904
  -3.221        -13.902
  -3.219        -13.900
  -3.217        -13.898
  -3.215        -13.896
  -3.213        -13.894
  -3.211        -13.892
  -3.208        -13.890
  -3.206        -13.888
  -3.204        -13.886
  -3.202        -13.885
  -3.200        -13.883
  -3.197        -13.881
  -3.195        -13.879
  -3.193        -13.877
  -3.191        -13.875
  -3.189        -13.873
  -3.187        -13.872
  -3.184        -13.870
  -3.182        -13.868
  -3.180        -13.866
  -3.178        -13.864
  -3.176        -13.863
  -3.174        -13.861
  -3.171        -13.859
  -3.169        -13.858
  -3.167        -13.856
  -3.165        -13.854
  -3.163        -13.853
  -3.161        -13.851
  -3.158        -13.849
  -3.156        -13.848
  -3.154        -13.846
  -3.152        -13.845
  -3.150        -13.843
  -3.148        -13.841
  -3.145        -13.840
  -3.143        -13.838
  -3.141        -13.837
  -3.139        -13.836
  -3.137        -13.834
  -3.135        -13.833
  -3.132        -13.831
  -3.130        -13.830
  -3.128        -13.829
  -3.126        -13.827
  -3.124        -13.826
  -3.122        -13.825
  -3.119        -13.823
  -3.117        -13.822
  -3.115        -13.821
  -3.113        -13.819
  -3.111        -13.818
  -3.108        -13.817
  -3.106        -13.816
  -3.104        -13.815
  -3.102        -13.814
  -3.100        -13.812
  -3.098        -13.811
  -3.095        -13.810
  -3.093        -13.809
  -3.091        -13.808
  -3.089        -13.807
  -3.087        -13.806
  -3.085        -13.805
  -3.082        -13.804
  -3.080        -13.803
  -3.078        -13.802
  -3.076        -13.801
  -3.074        -13.801
  -3.072        -13.800
  -3.069        -13.799
  -3.067        -13.798
  -3.065        -13.797
  -3.063        -13.796
  -3.061        -13.796
  -3.059        -13.795
  -3.056        -13.794
  -3.054        -13.793
  -3.052        -13.793
  -3.050        -13.792
  -3.048        -13.792
  -3.046        -13.791
  -3.043        -13.790
  -3.041        -13.790
  -3.039        -13.789
  -3.037        -13.789
  -3.035        -13.788
  -3.032        -13.788
  -3.030        -13.787
  -3.028        -13.787
  -3.026        -13.787
  -3.024        -13.786
  -3.022        -13.786
  -3.019        -13.786
  -3.017        -13.785
  -3.015        -13.785
  -3.013        -13.785
  -3.011        -13.785
  -3.009        -13.784
  -3.006        -13.784
  -3.004        -13.784
  -3.002        -13.784
  -3.000        -13.784
  -2.998        -13.784
  -2.996        -13.784
  -2.993        -13.784
  -2.991        -13.784
  -2.989        -13.784
  -2.987        -13.784
  -2.985        -13.784
  -2.983        -13.784
  -2.980        -13.785
  -2.978        -13.785
  -2.976        -13.785
  -2.974        -13.785
  -2.972        -13.785
  -2.970        -13.786
  -2.967        -13.786
  -2.965        -13.786
  -2.963        -13.787
  -2.961        -13.787
  -2.959        -13.788
  -2.956        -13.788
  -2.954        -13.789
  -2.952        -13.789
  -2.950        -13.790
  -2.948        -13.790
  -2.946        -13.791
  -2.944        -13.792
  -2.941        -13.792
  -2.939        -13.793
  -2.937        -13.794
  -2.935        -13.795
  -2.933        -13.795
  -2.930        -13.796
  -2.928        -13.797
  -2.926        -13.798
  -2.924        -13.799
  -2.922        -13.800
  -2.920        -13.801
  -2.917        -13.802
  -2.915        -13.803
  -2.913        -13.804
  -2.911        -13.805
  -2.909        -13.807
  -2.907        -13.808
  -2.904        -13.809
  -2.902        -13.810
  -2.900        -13.812
  -2.898        -13.813
  -2.896        -13.814
  -2.894        -13.816
  -2.891        -13.817
  -2.889        -13.819
  -2.887        -13.820
  -2.885        -13.822
  -2.883        -13.824
  -2.880        -13.825
  -2.878        -13.827
  -2.876        -13.828
  -2.874        -13.830
  -2.872        -13.832
  -2.870        -13.834
  -2.867        -13.836
  -2.865        -13.838
  -2.863        -13.839
  -2.861        -13.841
  -2.859        -13.844
  -2.857        -13.846
  -2.855        -13.848
  -2.852        -13.850
  -2.850        -13.852
  -2.848        -13.854
  -2.846        -13.856
  -2.843        -13.859
  -2.842        -13.861
  -2.839        -13.864
  -2.837        -13.866
  -2.835        -13.868
  -2.833        -13.871
  -2.831        -13.873
  -2.828        -13.876
  -2.826        -13.879
  -2.824        -13.881
  -2.822        -13.884
  -2.820        -13.887
  -2.817        -13.890
  -2.815        -13.893
  -2.813        -13.896
  -2.811        -13.899
  -2.809        -13.901
  -2.807        -13.904
  -2.805        -13.907
  -2.802        -13.911
  -2.800        -13.914
  -2.798        -13.917
  -2.796        -13.920
  -2.794        -13.923
  -2.792        -13.927
  -2.789        -13.930
  -2.787        -13.934
  -2.785        -13.937
  -2.783        -13.941
  -2.781        -13.944
  -2.779        -13.948
  -2.776        -13.952
  -2.774        -13.955
  -2.772        -13.959
  -2.770        -13.963
  -2.767        -13.967
  -2.765        -13.971
  -2.763        -13.975
  -2.761        -13.979
  -2.759        -13.983
  -2.757        -13.987
  -2.754        -13.991
  -2.753        -13.995
  -2.750        -14.000
  -2.748        -14.004
  -2.746        -14.008
  -2.744        -14.013
  -2.741        -14.017
  -2.739        -14.022
  -2.737        -14.027
  -2.735        -14.031
  -2.733        -14.036
  -2.731        -14.041
  -2.729        -14.045
  -2.726        -14.050
  -2.724        -14.055
  -2.722        -14.060
  -2.720        -14.065
  -2.718        -14.070
  -2.716        -14.075
  -2.713        -14.081
  -2.711        -14.086
  -2.709        -14.091
  -2.707        -14.097
  -2.705        -14.102
  -2.703        -14.108
  -2.700        -14.113
  -2.698        -14.119
  -2.696        -14.124
  -2.694        -14.130
  -2.692        -14.136
  -2.689        -14.142
  -2.687        -14.148
  -2.685        -14.154
  -2.683        -14.160
  -2.681        -14.166
  -2.679        -14.172
  -2.677        -14.178
  -2.674        -14.185
  -2.672        -14.191
  -2.670        -14.197
  -2.668        -14.204
  -2.666        -14.210
  -2.663        -14.217
  -2.661        -14.224
  -2.659        -14.230
  -2.657        -14.237
  -2.655        -14.244
  -2.653        -14.251
  -2.650        -14.258
  -2.648        -14.265
  -2.646        -14.272
  -2.644        -14.280
  -2.642        -14.287
  -2.640        -14.294
  -2.637        -14.302
  -2.635        -14.309
  -2.633        -14.317
  -2.631        -14.324
  -2.629        -14.332
  -2.626        -14.340
  -2.624        -14.348
  -2.622        -14.355
  -2.620        -14.363
  -2.618        -14.371
  -2.616        -14.380
  -2.614        -14.388
  -2.611        -14.396
  -2.609        -14.404
  -2.607        -14.413
  -2.605        -14.421
  -2.603        -14.430
  -2.600        -14.438
  -2.598        -14.447
  -2.596        -14.456
  -2.594        -14.465
  -2.592        -14.474
  -2.590        -14.483
  -2.587        -14.492
  -2.585        -14.501
  -2.583        -14.510
  -2.581        -14.520
  -2.579        -14.529
  -2.577        -14.538
  -2.574        -14.548
  -2.572        -14.558
  -2.570        -14.567
  -2.568        -14.577
  -2.566        -14.587
  -2.564        -14.597
  -2.561        -14.607
  -2.559        -14.618
  -2.557        -14.628
  -2.555        -14.638
  -2.553        -14.648
  -2.551        -14.659
  -2.548        -14.669
  -2.546        -14.680
  -2.544        -14.691
  -2.542        -14.702
  -2.540        -14.713
  -2.538        -14.723
  -2.535        -14.735
  -2.533        -14.746
  -2.531        -14.757
  -2.529        -14.768
  -2.527        -14.780
  -2.525        -14.791
  -2.522        -14.803
  -2.520        -14.814
  -2.518        -14.826
  -2.516        -14.838
  -2.514        -14.850
  -2.511        -14.862
  -2.509        -14.874
  -2.507        -14.887
  -2.505        -14.899
  -2.503        -14.911
  -2.501        -14.924
  -2.498        -14.937
  -2.496        -14.949
  -2.494        -14.962
  -2.492        -14.975
  -2.490        -14.988
  -2.488        -15.001
  -2.485        -15.015
  -2.483        -15.028
  -2.481        -15.041
  -2.479        -15.055
  -2.477        -15.068
  -2.475        -15.082
  -2.472        -15.096
  -2.470        -15.110
  -2.468        -15.124
  -2.466        -15.138
  -2.464        -15.152
  -2.462        -15.167
  -2.459        -15.181
  -2.457        -15.196
  -2.455        -15.210
  -2.453        -15.225
  -2.451        -15.240
  -2.448        -15.255
  -2.446        -15.270
  -2.444        -15.285
  -2.442        -15.300
  -2.440        -15.316
  -2.438        -15.331
  -2.435        -15.347
  -2.433        -15.362
  -2.431        -15.378
  -2.429        -15.394
  -2.427        -15.410
  -2.425        -15.427
  -2.422        -15.443
  -2.420        -15.459
  -2.418        -15.476
  -2.416        -15.492
  -2.414        -15.509
  -2.412        -15.526
  -2.409        -15.543
  -2.407        -15.560
  -2.405        -15.577
  -2.403        -15.595
  -2.401        -15.612
  -2.398        -15.630
  -2.396        -15.648
  -2.394        -15.665
  -2.392        -15.683
  -2.390        -15.701
  -2.388        -15.719
  -2.386        -15.738
  -2.383        -15.756
  -2.381        -15.775
  -2.379        -15.794
  -2.377        -15.812
  -2.375        -15.831
  -2.372        -15.850
  -2.370        -15.870
  -2.368        -15.889
  -2.366        -15.909
  -2.364        -15.928
  -2.362        -15.948
  -2.359        -15.968
  -2.357        -15.987
  -2.355        -16.008
  -2.353        -16.028
  -2.351        -16.048
  -2.349        -16.069
  -2.346        -16.089
  -2.344        -16.110
  -2.342        -16.131
  -2.340        -16.152
  -2.338        -16.173
  -2.336        -16.195
  -2.333        -16.216
  -2.331        -16.238
  -2.329        -16.260
  -2.327        -16.282
  -2.325        -16.304
  -2.323        -16.326
  -2.320        -16.348
  -2.318        -16.371
  -2.316        -16.393
  -2.314        -16.416
  -2.312        -16.439
  -2.309        -16.462
  -2.307        -16.485
  -2.305        -16.508
  -2.303        -16.532
  -2.301        -16.556
  -2.299        -16.579
  -2.297        -16.603
  -2.294        -16.627
  -2.292        -16.652
  -2.290        -16.676
  -2.288        -16.701
  -2.286        -16.725
  -2.283        -16.750
  -2.281        -16.775
  -2.279        -16.800
  -2.277        -16.826
  -2.275        -16.851
  -2.273        -16.877
  -2.270        -16.903
  -2.268        -16.929
  -2.266        -16.955
  -2.264        -16.981
  -2.262        -17.007
  -2.260        -17.034
  -2.257        -17.061
  -2.255        -17.088
  -2.253        -17.115
  -2.251        -17.142
  -2.249        -17.169
  -2.247        -17.197
  -2.244        -17.225
  -2.242        -17.253
  -2.240        -17.281
  -2.238        -17.309
  -2.236        -17.338
  -2.234        -17.366
  -2.231        -17.395
  -2.229        -17.424
  -2.227        -17.453
  -2.225        -17.482
  -2.223        -17.511
  -2.220        -17.541
  -2.218        -17.571
  -2.216        -17.601
  -2.214        -17.631
  -2.212        -17.661
  -2.210        -17.691
  -2.207        -17.722
  -2.205        -17.752
  -2.203        -17.783
  -2.201        -17.814
  -2.199        -17.845
  -2.197        -17.876
  -2.194        -17.907
  -2.192        -17.939
  -2.190        -17.971
  -2.188        -18.002
  -2.186        -18.034
  -2.184        -18.066
  -2.181        -18.098
  -2.179        -18.130
  -2.177        -18.162
  -2.175        -18.194
  -2.173        -18.227
  -2.171        -18.259
  -2.168        -18.292
  -2.166        -18.324
  -2.164        -18.356
  -2.162        -18.389
  -2.160        -18.421
  -2.158        -18.453
  -2.155        -18.486
  -2.153        -18.518
  -2.151        -18.550
  -2.149        -18.582
  -2.147        -18.613
  -2.145        -18.644
  -2.142        -18.675
  -2.140        -18.706
  -2.138        -18.737
  -2.136        -18.767
  -2.134        -18.796
  -2.131        -18.825
  -2.129        -18.854
  -2.127        -18.882
  -2.125        -18.909
  -2.123        -18.935
  -2.121        -18.961
  -2.118        -18.986
  -2.116        -19.011
  -2.114        -19.034
  -2.112        -19.056
  -2.110        -19.078
  -2.108        -19.098
  -2.105        -19.117
  -2.103        -19.136
  -2.101        -19.153
  -2.099        -19.169
  -2.097        -19.184
  -2.095        -19.198
  -2.092        -19.211
  -2.090        -19.223
  -2.088        -19.233
  -2.086        -19.243
  -2.084        -19.252
  -2.082        -19.260
  -2.079        -19.267
  -2.077        -19.273
  -2.075        -19.278
  -2.073        -19.283
  -2.071        -19.286
  -2.069        -19.289
  -2.066        -19.291
  -2.064        -19.293
  -2.062        -19.294
  -2.060        -19.295
  -2.058        -19.295
  -2.056        -19.295
  -2.053        -19.294
  -2.051        -19.293
  -2.049        -19.292
  -2.047        -19.290
  -2.045        -19.289
  -2.043        -19.286
  -2.040        -19.284
  -2.038        -19.281
  -2.036        -19.278
  -2.034        -19.275
  -2.032        -19.272
  -2.029        -19.269
  -2.027        -19.266
  -2.025        -19.262
  -2.023        -19.259
  -2.021        -19.255
  -2.019        -19.251
  -2.016        -19.247
  -2.014        -19.243
  -2.012        -19.240
  -2.010        -19.235
  -2.008        -19.232
  -2.006        -19.227
  -2.003        -19.223
  -2.001        -19.219
  -1.999        -19.215
  -1.997        -19.211
  -1.995        -19.207
  -1.993        -19.203
  -1.990        -19.198
  -1.988        -19.196
  -1.986        -19.197
  -1.984        -19.198
  -1.982        -19.199
  -1.980        -19.200
  -1.977        -19.201
  -1.975        -19.202
  -1.973        -19.202
  -1.971        -19.203
  -1.969        -19.204
  -1.967        -19.205
  -1.964        -19.206
  -1.962        -19.207
  -1.960        -19.208
  -1.958        -19.209
  -1.956        -19.210
  -1.953        -19.210
  -1.951        -19.211
  -1.949        -19.212
