# log Energy    log Jnu
# (eV)          (ergs/s/cm2/Hz/Sr)
  -6.864        -20.314
  -6.820        -20.227
  -6.777        -20.140
  -6.734        -20.054
  -6.690        -19.967
  -6.647        -19.880
  -6.603        -19.793
  -6.560        -19.706
  -6.516        -19.619
  -6.473        -19.532
  -6.430        -19.446
  -6.386        -19.359
  -6.343        -19.272
  -6.299        -19.185
  -6.256        -19.098
  -6.212        -19.012
  -6.169        -18.925
  -6.126        -18.838
  -6.082        -18.751
  -6.039        -18.664
  -5.995        -18.577
  -5.952        -18.491
  -5.908        -18.404
  -5.865        -18.317
  -5.822        -18.230
  -5.778        -18.143
  -5.735        -18.056
  -5.691        -17.969
  -5.648        -17.883
  -5.605        -17.796
  -5.561        -17.709
  -5.518        -17.622
  -5.474        -17.536
  -5.431        -17.449
  -5.387        -17.362
  -5.344        -17.275
  -5.300        -17.188
  -5.257        -17.101
  -5.214        -17.015
  -5.170        -16.928
  -5.127        -16.841
  -5.083        -16.755
  -5.040        -16.668
  -4.996        -16.581
  -4.953        -16.495
  -4.910        -16.408
  -4.866        -16.322
  -4.823        -16.235
  -4.779        -16.149
  -4.736        -16.062
  -4.692        -15.976
  -4.649        -15.889
  -4.606        -15.803
  -4.562        -15.716
  -4.519        -15.630
  -4.475        -15.544
  -4.432        -15.458
  -4.388        -15.372
  -4.345        -15.286
  -4.302        -15.200
  -4.258        -15.114
  -4.215        -15.029
  -4.171        -14.943
  -4.128        -14.858
  -4.084        -14.773
  -4.041        -14.688
  -3.998        -14.603
  -3.954        -14.518
  -3.911        -14.434
  -3.867        -14.350
  -3.824        -14.266
  -3.781        -14.183
  -3.737        -14.100
  -3.693        -14.017
  -3.650        -13.935
  -3.607        -13.854
  -3.584        -13.815
  -3.582        -13.805
  -3.580        -13.803
  -3.577        -13.800
  -3.575        -13.796
  -3.573        -13.792
  -3.571        -13.788
  -3.569        -13.784
  -3.567        -13.780
  -3.564        -13.776
  -3.562        -13.772
  -3.560        -13.768
  -3.558        -13.763
  -3.556        -13.759
  -3.554        -13.755
  -3.551        -13.751
  -3.549        -13.747
  -3.547        -13.743
  -3.545        -13.739
  -3.543        -13.735
  -3.540        -13.731
  -3.538        -13.727
  -3.536        -13.723
  -3.534        -13.719
  -3.532        -13.715
  -3.530        -13.711
  -3.528        -13.707
  -3.525        -13.703
  -3.523        -13.699
  -3.521        -13.695
  -3.519        -13.691
  -3.517        -13.687
  -3.514        -13.683
  -3.512        -13.679
  -3.510        -13.675
  -3.508        -13.671
  -3.506        -13.667
  -3.504        -13.663
  -3.502        -13.659
  -3.499        -13.655
  -3.497        -13.651
  -3.495        -13.647
  -3.493        -13.643
  -3.491        -13.639
  -3.488        -13.635
  -3.486        -13.631
  -3.484        -13.627
  -3.482        -13.623
  -3.480        -13.619
  -3.477        -13.615
  -3.475        -13.611
  -3.473        -13.607
  -3.471        -13.603
  -3.469        -13.599
  -3.467        -13.595
  -3.464        -13.592
  -3.462        -13.588
  -3.460        -13.583
  -3.458        -13.579
  -3.456        -13.576
  -3.454        -13.572
  -3.451        -13.568
  -3.449        -13.564
  -3.447        -13.560
  -3.445        -13.556
  -3.443        -13.552
  -3.441        -13.548
  -3.438        -13.544
  -3.436        -13.540
  -3.434        -13.536
  -3.432        -13.532
  -3.430        -13.528
  -3.428        -13.524
  -3.425        -13.520
  -3.423        -13.517
  -3.421        -13.513
  -3.419        -13.509
  -3.417        -13.505
  -3.415        -13.501
  -3.412        -13.497
  -3.410        -13.493
  -3.408        -13.489
  -3.406        -13.485
  -3.404        -13.481
  -3.402        -13.477
  -3.399        -13.474
  -3.397        -13.470
  -3.395        -13.466
  -3.393        -13.462
  -3.391        -13.458
  -3.389        -13.454
  -3.386        -13.450
  -3.384        -13.446
  -3.382        -13.442
  -3.380        -13.439
  -3.378        -13.435
  -3.376        -13.431
  -3.373        -13.427
  -3.371        -13.423
  -3.369        -13.419
  -3.367        -13.415
  -3.365        -13.412
  -3.362        -13.408
  -3.360        -13.404
  -3.358        -13.400
  -3.356        -13.396
  -3.354        -13.392
  -3.352        -13.388
  -3.349        -13.385
  -3.347        -13.381
  -3.345        -13.377
  -3.343        -13.373
  -3.341        -13.369
  -3.339        -13.365
  -3.336        -13.362
  -3.334        -13.358
  -3.332        -13.354
  -3.330        -13.350
  -3.328        -13.346
  -3.326        -13.343
  -3.323        -13.339
  -3.321        -13.335
  -3.319        -13.331
  -3.317        -13.327
  -3.315        -13.324
  -3.313        -13.320
  -3.310        -13.316
  -3.308        -13.312
  -3.306        -13.308
  -3.304        -13.305
  -3.302        -13.301
  -3.300        -13.297
  -3.297        -13.293
  -3.295        -13.289
  -3.293        -13.286
  -3.291        -13.282
  -3.289        -13.278
  -3.287        -13.274
  -3.284        -13.271
  -3.282        -13.267
  -3.280        -13.263
  -3.278        -13.259
  -3.276        -13.256
  -3.273        -13.252
  -3.271        -13.248
  -3.269        -13.245
  -3.267        -13.241
  -3.265        -13.237
  -3.263        -13.233
  -3.260        -13.230
  -3.258        -13.226
  -3.256        -13.222
  -3.254        -13.218
  -3.252        -13.215
  -3.250        -13.211
  -3.247        -13.207
  -3.245        -13.204
  -3.243        -13.200
  -3.241        -13.196
  -3.239        -13.193
  -3.237        -13.189
  -3.234        -13.185
  -3.232        -13.181
  -3.230        -13.178
  -3.228        -13.175
  -3.226        -13.171
  -3.224        -13.167
  -3.221        -13.163
  -3.219        -13.160
  -3.217        -13.156
  -3.215        -13.153
  -3.213        -13.149
  -3.211        -13.145
  -3.208        -13.141
  -3.206        -13.138
  -3.204        -13.134
  -3.202        -13.131
  -3.200        -13.127
  -3.197        -13.124
  -3.195        -13.120
  -3.193        -13.116
  -3.191        -13.113
  -3.189        -13.109
  -3.187        -13.105
  -3.184        -13.102
  -3.182        -13.098
  -3.180        -13.095
  -3.178        -13.091
  -3.176        -13.088
  -3.174        -13.084
  -3.171        -13.080
  -3.169        -13.077
  -3.167        -13.073
  -3.165        -13.070
  -3.163        -13.066
  -3.161        -13.063
  -3.158        -13.059
  -3.156        -13.056
  -3.154        -13.052
  -3.152        -13.049
  -3.150        -13.045
  -3.148        -13.042
  -3.145        -13.038
  -3.143        -13.035
  -3.141        -13.031
  -3.139        -13.028
  -3.137        -13.024
  -3.135        -13.021
  -3.132        -13.017
  -3.130        -13.014
  -3.128        -13.010
  -3.126        -13.007
  -3.124        -13.003
  -3.122        -13.000
  -3.119        -12.996
  -3.117        -12.993
  -3.115        -12.990
  -3.113        -12.986
  -3.111        -12.983
  -3.108        -12.979
  -3.106        -12.976
  -3.104        -12.972
  -3.102        -12.969
  -3.100        -12.966
  -3.098        -12.962
  -3.095        -12.959
  -3.093        -12.955
  -3.091        -12.952
  -3.089        -12.949
  -3.087        -12.945
  -3.085        -12.942
  -3.082        -12.939
  -3.080        -12.935
  -3.078        -12.932
  -3.076        -12.929
  -3.074        -12.925
  -3.072        -12.922
  -3.069        -12.919
  -3.067        -12.915
  -3.065        -12.912
  -3.063        -12.909
  -3.061        -12.905
  -3.059        -12.902
  -3.056        -12.899
  -3.054        -12.895
  -3.052        -12.892
  -3.050        -12.889
  -3.048        -12.886
  -3.046        -12.882
  -3.043        -12.879
  -3.041        -12.876
  -3.039        -12.873
  -3.037        -12.869
  -3.035        -12.866
  -3.032        -12.863
  -3.030        -12.860
  -3.028        -12.857
  -3.026        -12.853
  -3.024        -12.850
  -3.022        -12.847
  -3.019        -12.844
  -3.017        -12.840
  -3.015        -12.837
  -3.013        -12.834
  -3.011        -12.831
  -3.009        -12.828
  -3.006        -12.825
  -3.004        -12.822
  -3.002        -12.818
  -3.000        -12.815
  -2.998        -12.812
  -2.996        -12.809
  -2.993        -12.806
  -2.991        -12.803
  -2.989        -12.800
  -2.987        -12.797
  -2.985        -12.794
  -2.983        -12.791
  -2.980        -12.788
  -2.978        -12.784
  -2.976        -12.781
  -2.974        -12.778
  -2.972        -12.775
  -2.970        -12.772
  -2.967        -12.769
  -2.965        -12.766
  -2.963        -12.763
  -2.961        -12.760
  -2.959        -12.757
  -2.956        -12.754
  -2.954        -12.751
  -2.952        -12.748
  -2.950        -12.745
  -2.948        -12.742
  -2.946        -12.740
  -2.944        -12.737
  -2.941        -12.734
  -2.939        -12.731
  -2.937        -12.728
  -2.935        -12.725
  -2.933        -12.722
  -2.930        -12.719
  -2.928        -12.716
  -2.926        -12.713
  -2.924        -12.711
  -2.922        -12.708
  -2.920        -12.705
  -2.917        -12.702
  -2.915        -12.699
  -2.913        -12.696
  -2.911        -12.694
  -2.909        -12.691
  -2.907        -12.688
  -2.904        -12.685
  -2.902        -12.682
  -2.900        -12.680
  -2.898        -12.677
  -2.896        -12.674
  -2.894        -12.671
  -2.891        -12.669
  -2.889        -12.666
  -2.887        -12.663
  -2.885        -12.661
  -2.883        -12.658
  -2.880        -12.655
  -2.878        -12.653
  -2.876        -12.650
  -2.874        -12.647
  -2.872        -12.645
  -2.870        -12.642
  -2.867        -12.640
  -2.865        -12.637
  -2.863        -12.634
  -2.861        -12.631
  -2.859        -12.629
  -2.857        -12.626
  -2.855        -12.624
  -2.852        -12.621
  -2.850        -12.619
  -2.848        -12.617
  -2.846        -12.614
  -2.843        -12.611
  -2.842        -12.609
  -2.839        -12.606
  -2.837        -12.604
  -2.835        -12.602
  -2.833        -12.599
  -2.831        -12.597
  -2.828        -12.594
  -2.826        -12.592
  -2.824        -12.589
  -2.822        -12.587
  -2.820        -12.584
  -2.817        -12.582
  -2.815        -12.580
  -2.813        -12.578
  -2.811        -12.575
  -2.809        -12.573
  -2.807        -12.570
  -2.805        -12.568
  -2.802        -12.566
  -2.800        -12.564
  -2.798        -12.562
  -2.796        -12.559
  -2.794        -12.557
  -2.792        -12.555
  -2.789        -12.552
  -2.787        -12.550
  -2.785        -12.548
  -2.783        -12.546
  -2.781        -12.544
  -2.779        -12.542
  -2.776        -12.540
  -2.774        -12.537
  -2.772        -12.535
  -2.770        -12.533
  -2.767        -12.531
  -2.765        -12.529
  -2.763        -12.527
  -2.761        -12.525
  -2.759        -12.523
  -2.757        -12.521
  -2.754        -12.519
  -2.753        -12.517
  -2.750        -12.515
  -2.748        -12.513
  -2.746        -12.511
  -2.744        -12.509
  -2.741        -12.507
  -2.739        -12.506
  -2.737        -12.503
  -2.735        -12.502
  -2.733        -12.500
  -2.731        -12.498
  -2.729        -12.496
  -2.726        -12.494
  -2.724        -12.493
  -2.722        -12.491
  -2.720        -12.489
  -2.718        -12.487
  -2.716        -12.485
  -2.713        -12.484
  -2.711        -12.482
  -2.709        -12.480
  -2.707        -12.479
  -2.705        -12.477
  -2.703        -12.475
  -2.700        -12.474
  -2.698        -12.472
  -2.696        -12.471
  -2.694        -12.469
  -2.692        -12.468
  -2.689        -12.466
  -2.687        -12.464
  -2.685        -12.463
  -2.683        -12.461
  -2.681        -12.460
  -2.679        -12.459
  -2.677        -12.457
  -2.674        -12.456
  -2.672        -12.454
  -2.670        -12.453
  -2.668        -12.452
  -2.666        -12.450
  -2.663        -12.449
  -2.661        -12.448
  -2.659        -12.446
  -2.657        -12.445
  -2.655        -12.444
  -2.653        -12.443
  -2.650        -12.441
  -2.648        -12.440
  -2.646        -12.439
  -2.644        -12.438
  -2.642        -12.437
  -2.640        -12.436
  -2.637        -12.435
  -2.635        -12.434
  -2.633        -12.433
  -2.631        -12.431
  -2.629        -12.430
  -2.626        -12.430
  -2.624        -12.428
  -2.622        -12.428
  -2.620        -12.426
  -2.618        -12.426
  -2.616        -12.425
  -2.614        -12.424
  -2.611        -12.423
  -2.609        -12.422
  -2.607        -12.421
  -2.605        -12.421
  -2.603        -12.420
  -2.600        -12.419
  -2.598        -12.418
  -2.596        -12.418
  -2.594        -12.417
  -2.592        -12.416
  -2.590        -12.416
  -2.587        -12.415
  -2.585        -12.415
  -2.583        -12.414
  -2.581        -12.413
  -2.579        -12.413
  -2.577        -12.412
  -2.574        -12.412
  -2.572        -12.412
  -2.570        -12.411
  -2.568        -12.411
  -2.566        -12.410
  -2.564        -12.410
  -2.561        -12.410
  -2.559        -12.410
  -2.557        -12.409
  -2.555        -12.409
  -2.553        -12.409
  -2.551        -12.409
  -2.548        -12.408
  -2.546        -12.408
  -2.544        -12.408
  -2.542        -12.408
  -2.540        -12.408
  -2.538        -12.408
  -2.535        -12.408
  -2.533        -12.408
  -2.531        -12.408
  -2.529        -12.408
  -2.527        -12.408
  -2.525        -12.408
  -2.522        -12.409
  -2.520        -12.409
  -2.518        -12.409
  -2.516        -12.409
  -2.514        -12.409
  -2.511        -12.410
  -2.509        -12.410
  -2.507        -12.410
  -2.505        -12.411
  -2.503        -12.411
  -2.501        -12.412
  -2.498        -12.412
  -2.496        -12.413
  -2.494        -12.413
  -2.492        -12.414
  -2.490        -12.414
  -2.488        -12.415
  -2.485        -12.416
  -2.483        -12.416
  -2.481        -12.417
  -2.479        -12.418
  -2.477        -12.419
  -2.475        -12.419
  -2.472        -12.420
  -2.470        -12.421
  -2.468        -12.422
  -2.466        -12.423
  -2.464        -12.424
  -2.462        -12.425
  -2.459        -12.426
  -2.457        -12.427
  -2.455        -12.428
  -2.453        -12.429
  -2.451        -12.430
  -2.448        -12.432
  -2.446        -12.433
  -2.444        -12.434
  -2.442        -12.435
  -2.440        -12.437
  -2.438        -12.438
  -2.435        -12.439
  -2.433        -12.441
  -2.431        -12.443
  -2.429        -12.444
  -2.427        -12.446
  -2.425        -12.447
  -2.422        -12.449
  -2.420        -12.451
  -2.418        -12.452
  -2.416        -12.454
  -2.414        -12.456
  -2.412        -12.457
  -2.409        -12.459
  -2.407        -12.461
  -2.405        -12.463
  -2.403        -12.465
  -2.401        -12.467
  -2.398        -12.469
  -2.396        -12.471
  -2.394        -12.473
  -2.392        -12.476
  -2.390        -12.478
  -2.388        -12.480
  -2.386        -12.482
  -2.383        -12.485
  -2.381        -12.487
  -2.379        -12.489
  -2.377        -12.492
  -2.375        -12.494
  -2.372        -12.497
  -2.370        -12.499
  -2.368        -12.502
  -2.366        -12.505
  -2.364        -12.508
  -2.362        -12.510
  -2.359        -12.513
  -2.357        -12.516
  -2.355        -12.519
  -2.353        -12.522
  -2.351        -12.525
  -2.349        -12.528
  -2.346        -12.531
  -2.344        -12.534
  -2.342        -12.537
  -2.340        -12.540
  -2.338        -12.543
  -2.336        -12.547
  -2.333        -12.550
  -2.331        -12.553
  -2.329        -12.557
  -2.327        -12.560
  -2.325        -12.564
  -2.323        -12.567
  -2.320        -12.571
  -2.318        -12.575
  -2.316        -12.578
  -2.314        -12.582
  -2.312        -12.586
  -2.309        -12.590
  -2.307        -12.594
  -2.305        -12.598
  -2.303        -12.602
  -2.301        -12.606
  -2.299        -12.610
  -2.297        -12.614
  -2.294        -12.618
  -2.292        -12.623
  -2.290        -12.627
  -2.288        -12.631
  -2.286        -12.636
  -2.283        -12.640
  -2.281        -12.645
  -2.279        -12.649
  -2.277        -12.654
  -2.275        -12.659
  -2.273        -12.663
  -2.270        -12.668
  -2.268        -12.673
  -2.266        -12.678
  -2.264        -12.683
  -2.262        -12.688
  -2.260        -12.693
  -2.257        -12.698
  -2.255        -12.703
  -2.253        -12.709
  -2.251        -12.714
  -2.249        -12.719
  -2.247        -12.725
  -2.244        -12.730
  -2.242        -12.736
  -2.240        -12.741
  -2.238        -12.747
  -2.236        -12.753
  -2.234        -12.759
  -2.231        -12.764
  -2.229        -12.770
  -2.227        -12.776
  -2.225        -12.782
  -2.223        -12.788
  -2.220        -12.795
  -2.218        -12.801
  -2.216        -12.807
  -2.214        -12.814
  -2.212        -12.820
  -2.210        -12.826
  -2.207        -12.833
  -2.205        -12.839
  -2.203        -12.846
  -2.201        -12.853
  -2.199        -12.860
  -2.197        -12.867
  -2.194        -12.873
  -2.192        -12.880
  -2.190        -12.888
  -2.188        -12.895
  -2.186        -12.902
  -2.184        -12.909
  -2.181        -12.916
  -2.179        -12.924
  -2.177        -12.931
  -2.175        -12.939
  -2.173        -12.947
  -2.171        -12.954
  -2.168        -12.962
  -2.166        -12.970
  -2.164        -12.978
  -2.162        -12.986
  -2.160        -12.994
  -2.158        -13.002
  -2.155        -13.010
  -2.153        -13.018
  -2.151        -13.026
  -2.149        -13.035
  -2.147        -13.043
  -2.145        -13.052
  -2.142        -13.060
  -2.140        -13.069
  -2.138        -13.078
  -2.136        -13.087
  -2.134        -13.096
  -2.131        -13.105
  -2.129        -13.114
  -2.127        -13.123
  -2.125        -13.132
  -2.123        -13.141
  -2.121        -13.151
  -2.118        -13.160
  -2.116        -13.170
  -2.114        -13.179
  -2.112        -13.189
  -2.110        -13.199
  -2.108        -13.209
  -2.105        -13.219
  -2.103        -13.229
  -2.101        -13.239
  -2.099        -13.249
  -2.097        -13.259
  -2.095        -13.270
  -2.092        -13.280
  -2.090        -13.291
  -2.088        -13.301
  -2.086        -13.312
  -2.084        -13.323
  -2.082        -13.334
  -2.079        -13.345
  -2.077        -13.356
  -2.075        -13.367
  -2.073        -13.378
  -2.071        -13.389
  -2.069        -13.401
  -2.066        -13.412
  -2.064        -13.424
  -2.062        -13.436
  -2.060        -13.447
  -2.058        -13.459
  -2.056        -13.471
  -2.053        -13.483
  -2.051        -13.495
  -2.049        -13.508
  -2.047        -13.520
  -2.045        -13.533
  -2.043        -13.545
  -2.040        -13.558
  -2.038        -13.570
  -2.036        -13.583
  -2.034        -13.596
  -2.032        -13.609
  -2.029        -13.622
  -2.027        -13.635
  -2.025        -13.649
  -2.023        -13.662
  -2.021        -13.675
  -2.019        -13.689
  -2.016        -13.703
  -2.014        -13.717
  -2.012        -13.730
  -2.010        -13.744
  -2.008        -13.758
  -2.006        -13.773
  -2.003        -13.787
  -2.001        -13.801
  -1.999        -13.816
  -1.997        -13.831
  -1.995        -13.845
  -1.993        -13.860
  -1.990        -13.875
  -1.988        -13.890
  -1.986        -13.905
  -1.984        -13.920
  -1.982        -13.936
  -1.980        -13.951
  -1.977        -13.967
  -1.975        -13.983
  -1.973        -13.999
  -1.971        -14.014
  -1.969        -14.031
  -1.967        -14.047
  -1.964        -14.063
  -1.962        -14.079
  -1.960        -14.096
  -1.958        -14.112
  -1.956        -14.129
  -1.953        -14.146
  -1.951        -14.163
  -1.949        -14.180
