# log Energy    log Jnu
# (eV)          (ergs/s/cm2/Hz/Sr)
  -6.864        -20.244
  -6.820        -20.158
  -6.777        -20.071
  -6.734        -19.984
  -6.690        -19.897
  -6.647        -19.810
  -6.603        -19.723
  -6.560        -19.637
  -6.516        -19.550
  -6.473        -19.463
  -6.430        -19.376
  -6.386        -19.289
  -6.343        -19.202
  -6.299        -19.115
  -6.256        -19.029
  -6.212        -18.942
  -6.169        -18.855
  -6.126        -18.768
  -6.082        -18.681
  -6.039        -18.594
  -5.995        -18.508
  -5.952        -18.421
  -5.908        -18.334
  -5.865        -18.247
  -5.822        -18.160
  -5.778        -18.073
  -5.735        -17.987
  -5.691        -17.900
  -5.648        -17.813
  -5.605        -17.726
  -5.561        -17.639
  -5.518        -17.552
  -5.474        -17.466
  -5.431        -17.379
  -5.387        -17.292
  -5.344        -17.205
  -5.300        -17.118
  -5.257        -17.032
  -5.214        -16.945
  -5.170        -16.858
  -5.127        -16.772
  -5.083        -16.685
  -5.040        -16.598
  -4.996        -16.511
  -4.953        -16.425
  -4.910        -16.338
  -4.866        -16.252
  -4.823        -16.165
  -4.779        -16.078
  -4.736        -15.992
  -4.692        -15.905
  -4.649        -15.819
  -4.606        -15.732
  -4.562        -15.646
  -4.519        -15.560
  -4.475        -15.473
  -4.432        -15.387
  -4.388        -15.301
  -4.345        -15.215
  -4.302        -15.129
  -4.258        -15.043
  -4.215        -14.957
  -4.171        -14.872
  -4.128        -14.786
  -4.084        -14.701
  -4.041        -14.615
  -3.998        -14.530
  -3.954        -14.445
  -3.911        -14.361
  -3.867        -14.276
  -3.824        -14.192
  -3.781        -14.108
  -3.737        -14.024
  -3.693        -13.941
  -3.650        -13.858
  -3.607        -13.776
  -3.584        -13.737
  -3.582        -13.727
  -3.580        -13.725
  -3.577        -13.722
  -3.575        -13.718
  -3.573        -13.713
  -3.571        -13.709
  -3.569        -13.705
  -3.567        -13.701
  -3.564        -13.697
  -3.562        -13.693
  -3.560        -13.689
  -3.558        -13.685
  -3.556        -13.681
  -3.554        -13.677
  -3.551        -13.673
  -3.549        -13.668
  -3.547        -13.665
  -3.545        -13.660
  -3.543        -13.656
  -3.540        -13.652
  -3.538        -13.648
  -3.536        -13.644
  -3.534        -13.640
  -3.532        -13.636
  -3.530        -13.632
  -3.528        -13.628
  -3.525        -13.624
  -3.523        -13.620
  -3.521        -13.616
  -3.519        -13.611
  -3.517        -13.608
  -3.514        -13.603
  -3.512        -13.599
  -3.510        -13.595
  -3.508        -13.591
  -3.506        -13.587
  -3.504        -13.583
  -3.502        -13.579
  -3.499        -13.575
  -3.497        -13.571
  -3.495        -13.567
  -3.493        -13.563
  -3.491        -13.559
  -3.488        -13.555
  -3.486        -13.551
  -3.484        -13.547
  -3.482        -13.543
  -3.480        -13.539
  -3.477        -13.535
  -3.475        -13.531
  -3.473        -13.527
  -3.471        -13.523
  -3.469        -13.518
  -3.467        -13.515
  -3.464        -13.511
  -3.462        -13.507
  -3.460        -13.503
  -3.458        -13.498
  -3.456        -13.494
  -3.454        -13.490
  -3.451        -13.486
  -3.449        -13.483
  -3.447        -13.478
  -3.445        -13.474
  -3.443        -13.470
  -3.441        -13.467
  -3.438        -13.463
  -3.436        -13.458
  -3.434        -13.454
  -3.432        -13.450
  -3.430        -13.446
  -3.428        -13.443
  -3.425        -13.438
  -3.423        -13.435
  -3.421        -13.431
  -3.419        -13.427
  -3.417        -13.422
  -3.415        -13.419
  -3.412        -13.415
  -3.410        -13.411
  -3.408        -13.407
  -3.406        -13.403
  -3.404        -13.399
  -3.402        -13.395
  -3.399        -13.391
  -3.397        -13.387
  -3.395        -13.383
  -3.393        -13.379
  -3.391        -13.375
  -3.389        -13.371
  -3.386        -13.367
  -3.384        -13.363
  -3.382        -13.359
  -3.380        -13.355
  -3.378        -13.351
  -3.376        -13.347
  -3.373        -13.343
  -3.371        -13.339
  -3.369        -13.335
  -3.367        -13.331
  -3.365        -13.328
  -3.362        -13.324
  -3.360        -13.320
  -3.358        -13.316
  -3.356        -13.312
  -3.354        -13.308
  -3.352        -13.304
  -3.349        -13.300
  -3.347        -13.296
  -3.345        -13.292
  -3.343        -13.288
  -3.341        -13.284
  -3.339        -13.281
  -3.336        -13.277
  -3.334        -13.273
  -3.332        -13.269
  -3.330        -13.265
  -3.328        -13.261
  -3.326        -13.257
  -3.323        -13.253
  -3.321        -13.249
  -3.319        -13.245
  -3.317        -13.242
  -3.315        -13.238
  -3.313        -13.234
  -3.310        -13.230
  -3.308        -13.226
  -3.306        -13.222
  -3.304        -13.218
  -3.302        -13.214
  -3.300        -13.211
  -3.297        -13.207
  -3.295        -13.203
  -3.293        -13.199
  -3.291        -13.195
  -3.289        -13.191
  -3.287        -13.188
  -3.284        -13.184
  -3.282        -13.180
  -3.280        -13.176
  -3.278        -13.172
  -3.276        -13.168
  -3.273        -13.165
  -3.271        -13.161
  -3.269        -13.157
  -3.267        -13.153
  -3.265        -13.149
  -3.263        -13.145
  -3.260        -13.142
  -3.258        -13.138
  -3.256        -13.134
  -3.254        -13.130
  -3.252        -13.126
  -3.250        -13.123
  -3.247        -13.119
  -3.245        -13.115
  -3.243        -13.111
  -3.241        -13.107
  -3.239        -13.103
  -3.237        -13.100
  -3.234        -13.096
  -3.232        -13.092
  -3.230        -13.089
  -3.228        -13.085
  -3.226        -13.081
  -3.224        -13.077
  -3.221        -13.073
  -3.219        -13.070
  -3.217        -13.066
  -3.215        -13.062
  -3.213        -13.058
  -3.211        -13.055
  -3.208        -13.051
  -3.206        -13.047
  -3.204        -13.043
  -3.202        -13.040
  -3.200        -13.036
  -3.197        -13.032
  -3.195        -13.028
  -3.193        -13.025
  -3.191        -13.021
  -3.189        -13.017
  -3.187        -13.014
  -3.184        -13.010
  -3.182        -13.006
  -3.180        -13.003
  -3.178        -12.999
  -3.176        -12.995
  -3.174        -12.991
  -3.171        -12.988
  -3.169        -12.984
  -3.167        -12.980
  -3.165        -12.977
  -3.163        -12.973
  -3.161        -12.969
  -3.158        -12.966
  -3.156        -12.962
  -3.154        -12.958
  -3.152        -12.955
  -3.150        -12.951
  -3.148        -12.948
  -3.145        -12.944
  -3.143        -12.940
  -3.141        -12.937
  -3.139        -12.933
  -3.137        -12.929
  -3.135        -12.926
  -3.132        -12.922
  -3.130        -12.918
  -3.128        -12.915
  -3.126        -12.911
  -3.124        -12.908
  -3.122        -12.904
  -3.119        -12.900
  -3.117        -12.897
  -3.115        -12.893
  -3.113        -12.890
  -3.111        -12.886
  -3.108        -12.883
  -3.106        -12.879
  -3.104        -12.875
  -3.102        -12.872
  -3.100        -12.868
  -3.098        -12.865
  -3.095        -12.861
  -3.093        -12.858
  -3.091        -12.854
  -3.089        -12.851
  -3.087        -12.847
  -3.085        -12.844
  -3.082        -12.840
  -3.080        -12.837
  -3.078        -12.833
  -3.076        -12.830
  -3.074        -12.826
  -3.072        -12.823
  -3.069        -12.819
  -3.067        -12.816
  -3.065        -12.812
  -3.063        -12.809
  -3.061        -12.805
  -3.059        -12.802
  -3.056        -12.798
  -3.054        -12.795
  -3.052        -12.791
  -3.050        -12.788
  -3.048        -12.784
  -3.046        -12.781
  -3.043        -12.778
  -3.041        -12.774
  -3.039        -12.771
  -3.037        -12.767
  -3.035        -12.764
  -3.032        -12.760
  -3.030        -12.757
  -3.028        -12.754
  -3.026        -12.750
  -3.024        -12.747
  -3.022        -12.743
  -3.019        -12.740
  -3.017        -12.737
  -3.015        -12.733
  -3.013        -12.730
  -3.011        -12.727
  -3.009        -12.723
  -3.006        -12.720
  -3.004        -12.717
  -3.002        -12.713
  -3.000        -12.710
  -2.998        -12.707
  -2.996        -12.703
  -2.993        -12.700
  -2.991        -12.697
  -2.989        -12.693
  -2.987        -12.690
  -2.985        -12.687
  -2.983        -12.683
  -2.980        -12.680
  -2.978        -12.677
  -2.976        -12.674
  -2.974        -12.670
  -2.972        -12.667
  -2.970        -12.664
  -2.967        -12.661
  -2.965        -12.657
  -2.963        -12.654
  -2.961        -12.651
  -2.959        -12.648
  -2.956        -12.645
  -2.954        -12.641
  -2.952        -12.638
  -2.950        -12.635
  -2.948        -12.632
  -2.946        -12.629
  -2.944        -12.625
  -2.941        -12.622
  -2.939        -12.619
  -2.937        -12.616
  -2.935        -12.613
  -2.933        -12.610
  -2.930        -12.607
  -2.928        -12.604
  -2.926        -12.600
  -2.924        -12.597
  -2.922        -12.594
  -2.920        -12.591
  -2.917        -12.588
  -2.915        -12.585
  -2.913        -12.582
  -2.911        -12.579
  -2.909        -12.576
  -2.907        -12.573
  -2.904        -12.570
  -2.902        -12.567
  -2.900        -12.564
  -2.898        -12.561
  -2.896        -12.558
  -2.894        -12.554
  -2.891        -12.551
  -2.889        -12.549
  -2.887        -12.546
  -2.885        -12.543
  -2.883        -12.540
  -2.880        -12.537
  -2.878        -12.534
  -2.876        -12.531
  -2.874        -12.528
  -2.872        -12.525
  -2.870        -12.522
  -2.867        -12.519
  -2.865        -12.516
  -2.863        -12.513
  -2.861        -12.510
  -2.859        -12.508
  -2.857        -12.505
  -2.855        -12.502
  -2.852        -12.499
  -2.850        -12.496
  -2.848        -12.493
  -2.846        -12.490
  -2.843        -12.488
  -2.842        -12.485
  -2.839        -12.482
  -2.837        -12.479
  -2.835        -12.477
  -2.833        -12.474
  -2.831        -12.471
  -2.828        -12.468
  -2.826        -12.466
  -2.824        -12.463
  -2.822        -12.460
  -2.820        -12.457
  -2.817        -12.455
  -2.815        -12.452
  -2.813        -12.449
  -2.811        -12.447
  -2.809        -12.444
  -2.807        -12.441
  -2.805        -12.438
  -2.802        -12.436
  -2.800        -12.433
  -2.798        -12.431
  -2.796        -12.428
  -2.794        -12.426
  -2.792        -12.423
  -2.789        -12.420
  -2.787        -12.418
  -2.785        -12.415
  -2.783        -12.413
  -2.781        -12.410
  -2.779        -12.408
  -2.776        -12.405
  -2.774        -12.403
  -2.772        -12.400
  -2.770        -12.398
  -2.767        -12.395
  -2.765        -12.393
  -2.763        -12.390
  -2.761        -12.388
  -2.759        -12.385
  -2.757        -12.383
  -2.754        -12.381
  -2.753        -12.378
  -2.750        -12.376
  -2.748        -12.373
  -2.746        -12.371
  -2.744        -12.369
  -2.741        -12.366
  -2.739        -12.364
  -2.737        -12.362
  -2.735        -12.360
  -2.733        -12.357
  -2.731        -12.355
  -2.729        -12.353
  -2.726        -12.350
  -2.724        -12.348
  -2.722        -12.346
  -2.720        -12.344
  -2.718        -12.342
  -2.716        -12.339
  -2.713        -12.337
  -2.711        -12.335
  -2.709        -12.333
  -2.707        -12.331
  -2.705        -12.329
  -2.703        -12.327
  -2.700        -12.325
  -2.698        -12.322
  -2.696        -12.320
  -2.694        -12.318
  -2.692        -12.316
  -2.689        -12.314
  -2.687        -12.312
  -2.685        -12.310
  -2.683        -12.308
  -2.681        -12.306
  -2.679        -12.304
  -2.677        -12.302
  -2.674        -12.301
  -2.672        -12.299
  -2.670        -12.297
  -2.668        -12.295
  -2.666        -12.293
  -2.663        -12.291
  -2.661        -12.289
  -2.659        -12.287
  -2.657        -12.286
  -2.655        -12.284
  -2.653        -12.282
  -2.650        -12.280
  -2.648        -12.278
  -2.646        -12.277
  -2.644        -12.275
  -2.642        -12.273
  -2.640        -12.272
  -2.637        -12.270
  -2.635        -12.268
  -2.633        -12.267
  -2.631        -12.265
  -2.629        -12.264
  -2.626        -12.262
  -2.624        -12.260
  -2.622        -12.259
  -2.620        -12.257
  -2.618        -12.256
  -2.616        -12.254
  -2.614        -12.253
  -2.611        -12.251
  -2.609        -12.250
  -2.607        -12.248
  -2.605        -12.247
  -2.603        -12.246
  -2.600        -12.244
  -2.598        -12.243
  -2.596        -12.242
  -2.594        -12.240
  -2.592        -12.239
  -2.590        -12.238
  -2.587        -12.236
  -2.585        -12.235
  -2.583        -12.234
  -2.581        -12.233
  -2.579        -12.231
  -2.577        -12.230
  -2.574        -12.229
  -2.572        -12.228
  -2.570        -12.227
  -2.568        -12.226
  -2.566        -12.225
  -2.564        -12.224
  -2.561        -12.223
  -2.559        -12.222
  -2.557        -12.221
  -2.555        -12.220
  -2.553        -12.219
  -2.551        -12.218
  -2.548        -12.217
  -2.546        -12.216
  -2.544        -12.215
  -2.542        -12.214
  -2.540        -12.213
  -2.538        -12.212
  -2.535        -12.212
  -2.533        -12.211
  -2.531        -12.210
  -2.529        -12.209
  -2.527        -12.209
  -2.525        -12.208
  -2.522        -12.208
  -2.520        -12.207
  -2.518        -12.206
  -2.516        -12.206
  -2.514        -12.205
  -2.511        -12.205
  -2.509        -12.204
  -2.507        -12.204
  -2.505        -12.203
  -2.503        -12.203
  -2.501        -12.202
  -2.498        -12.202
  -2.496        -12.202
  -2.494        -12.201
  -2.492        -12.201
  -2.490        -12.201
  -2.488        -12.200
  -2.485        -12.200
  -2.483        -12.200
  -2.481        -12.200
  -2.479        -12.200
  -2.477        -12.199
  -2.475        -12.199
  -2.472        -12.199
  -2.470        -12.199
  -2.468        -12.199
  -2.466        -12.199
  -2.464        -12.199
  -2.462        -12.199
  -2.459        -12.199
  -2.457        -12.199
  -2.455        -12.199
  -2.453        -12.200
  -2.451        -12.200
  -2.448        -12.200
  -2.446        -12.200
  -2.444        -12.200
  -2.442        -12.201
  -2.440        -12.201
  -2.438        -12.201
  -2.435        -12.202
  -2.433        -12.202
  -2.431        -12.203
  -2.429        -12.203
  -2.427        -12.204
  -2.425        -12.204
  -2.422        -12.205
  -2.420        -12.205
  -2.418        -12.206
  -2.416        -12.207
  -2.414        -12.207
  -2.412        -12.208
  -2.409        -12.209
  -2.407        -12.210
  -2.405        -12.210
  -2.403        -12.211
  -2.401        -12.212
  -2.398        -12.213
  -2.396        -12.214
  -2.394        -12.215
  -2.392        -12.216
  -2.390        -12.217
  -2.388        -12.218
  -2.386        -12.219
  -2.383        -12.220
  -2.381        -12.221
  -2.379        -12.223
  -2.377        -12.224
  -2.375        -12.225
  -2.372        -12.226
  -2.370        -12.228
  -2.368        -12.229
  -2.366        -12.231
  -2.364        -12.232
  -2.362        -12.233
  -2.359        -12.235
  -2.357        -12.237
  -2.355        -12.238
  -2.353        -12.240
  -2.351        -12.241
  -2.349        -12.243
  -2.346        -12.245
  -2.344        -12.247
  -2.342        -12.248
  -2.340        -12.250
  -2.338        -12.252
  -2.336        -12.254
  -2.333        -12.256
  -2.331        -12.258
  -2.329        -12.260
  -2.327        -12.262
  -2.325        -12.264
  -2.323        -12.266
  -2.320        -12.269
  -2.318        -12.271
  -2.316        -12.273
  -2.314        -12.276
  -2.312        -12.278
  -2.309        -12.280
  -2.307        -12.283
  -2.305        -12.285
  -2.303        -12.288
  -2.301        -12.290
  -2.299        -12.293
  -2.297        -12.296
  -2.294        -12.298
  -2.292        -12.301
  -2.290        -12.304
  -2.288        -12.307
  -2.286        -12.310
  -2.283        -12.313
  -2.281        -12.316
  -2.279        -12.319
  -2.277        -12.322
  -2.275        -12.325
  -2.273        -12.328
  -2.270        -12.331
  -2.268        -12.334
  -2.266        -12.337
  -2.264        -12.341
  -2.262        -12.344
  -2.260        -12.348
  -2.257        -12.351
  -2.255        -12.355
  -2.253        -12.358
  -2.251        -12.362
  -2.249        -12.365
  -2.247        -12.369
  -2.244        -12.373
  -2.242        -12.377
  -2.240        -12.381
  -2.238        -12.385
  -2.236        -12.388
  -2.234        -12.393
  -2.231        -12.397
  -2.229        -12.401
  -2.227        -12.405
  -2.225        -12.409
  -2.223        -12.413
  -2.220        -12.418
  -2.218        -12.422
  -2.216        -12.427
  -2.214        -12.431
  -2.212        -12.436
  -2.210        -12.440
  -2.207        -12.445
  -2.205        -12.449
  -2.203        -12.454
  -2.201        -12.459
  -2.199        -12.464
  -2.197        -12.469
  -2.194        -12.474
  -2.192        -12.479
  -2.190        -12.484
  -2.188        -12.489
  -2.186        -12.494
  -2.184        -12.499
  -2.181        -12.505
  -2.179        -12.510
  -2.177        -12.515
  -2.175        -12.521
  -2.173        -12.527
  -2.171        -12.532
  -2.168        -12.538
  -2.166        -12.544
  -2.164        -12.549
  -2.162        -12.555
  -2.160        -12.561
  -2.158        -12.567
  -2.155        -12.573
  -2.153        -12.579
  -2.151        -12.585
  -2.149        -12.591
  -2.147        -12.598
  -2.145        -12.604
  -2.142        -12.610
  -2.140        -12.617
  -2.138        -12.623
  -2.136        -12.630
  -2.134        -12.637
  -2.131        -12.643
  -2.129        -12.650
  -2.127        -12.657
  -2.125        -12.664
  -2.123        -12.671
  -2.121        -12.678
  -2.118        -12.685
  -2.116        -12.692
  -2.114        -12.700
  -2.112        -12.707
  -2.110        -12.714
  -2.108        -12.722
  -2.105        -12.729
  -2.103        -12.737
  -2.101        -12.745
  -2.099        -12.752
  -2.097        -12.760
  -2.095        -12.768
  -2.092        -12.776
  -2.090        -12.784
  -2.088        -12.792
  -2.086        -12.800
  -2.084        -12.809
  -2.082        -12.817
  -2.079        -12.825
  -2.077        -12.834
  -2.075        -12.842
  -2.073        -12.851
  -2.071        -12.859
  -2.069        -12.868
  -2.066        -12.877
  -2.064        -12.886
  -2.062        -12.895
  -2.060        -12.904
  -2.058        -12.913
  -2.056        -12.923
  -2.053        -12.932
  -2.051        -12.941
  -2.049        -12.951
  -2.047        -12.960
  -2.045        -12.970
  -2.043        -12.980
  -2.040        -12.989
  -2.038        -12.999
  -2.036        -13.009
  -2.034        -13.019
  -2.032        -13.029
  -2.029        -13.039
  -2.027        -13.050
  -2.025        -13.060
  -2.023        -13.071
  -2.021        -13.081
  -2.019        -13.092
  -2.016        -13.102
  -2.014        -13.113
  -2.012        -13.124
  -2.010        -13.135
  -2.008        -13.146
  -2.006        -13.157
  -2.003        -13.168
  -2.001        -13.180
  -1.999        -13.191
  -1.997        -13.203
  -1.995        -13.214
  -1.993        -13.226
  -1.990        -13.238
  -1.988        -13.249
  -1.986        -13.262
  -1.984        -13.273
  -1.982        -13.286
  -1.980        -13.298
  -1.977        -13.310
  -1.975        -13.323
  -1.973        -13.335
  -1.971        -13.348
  -1.969        -13.360
  -1.967        -13.373
  -1.964        -13.386
  -1.962        -13.399
  -1.960        -13.412
  -1.958        -13.426
  -1.956        -13.439
  -1.953        -13.452
  -1.951        -13.465
  -1.949        -13.479
